SteamRatio(mol:mol EB),Pressure(bar),Temperature(K),EconomicPotential($/hr)
6.000000,0.400000,800.000000,83.508168
6.000000,0.400000,805.000000,144.161281
6.000000,0.400000,810.000000,199.304168
6.000000,0.400000,815.000000,249.305642
6.000000,0.400000,820.000000,294.498113
6.000000,0.400000,825.000000,335.188421
6.000000,0.400000,830.000000,371.645403
6.000000,0.400000,835.000000,404.125286
6.000000,0.400000,840.000000,432.844909
6.000000,0.400000,845.000000,458.019132
6.000000,0.400000,850.000000,479.815012
6.000000,0.400000,855.000000,498.401675
6.000000,0.400000,860.000000,513.919867
6.000000,0.400000,865.000000,526.492471
6.000000,0.400000,870.000000,536.236712
6.000000,0.400000,875.000000,543.231727
6.000000,0.400000,880.000000,547.516025
6.000000,0.400000,885.000000,549.252434
6.000000,0.400000,890.000000,548.399845
6.000000,0.400000,895.000000,544.995890
6.000000,0.400000,900.000000,539.059239
6.000000,0.400000,905.000000,530.602931
6.000000,0.400000,910.000000,519.572732
6.000000,0.400000,915.000000,506.027622
6.000000,0.400000,920.000000,489.831512
6.000000,0.400000,925.000000,470.930281
6.000000,0.400000,930.000000,449.330330
6.000000,0.400000,935.000000,424.874471
6.000000,0.400000,940.000000,397.484865
6.000000,0.400000,945.000000,367.042888
6.000000,0.400000,950.000000,333.411798
6.000000,0.500000,800.000000,-53.383868
6.000000,0.500000,805.000000,16.637040
6.000000,0.500000,810.000000,80.554892
6.000000,0.500000,815.000000,138.778976
6.000000,0.500000,820.000000,191.679392
6.000000,0.500000,825.000000,239.595006
6.000000,0.500000,830.000000,282.826671
6.000000,0.500000,835.000000,321.656098
6.000000,0.500000,840.000000,356.330515
6.000000,0.500000,845.000000,387.074698
6.000000,0.500000,850.000000,414.090127
6.000000,0.500000,855.000000,437.560753
6.000000,0.500000,860.000000,457.645990
6.000000,0.500000,865.000000,474.488237
6.000000,0.500000,870.000000,488.173052
6.000000,0.500000,875.000000,498.885722
6.000000,0.500000,880.000000,506.697060
6.000000,0.500000,885.000000,511.632843
6.000000,0.500000,890.000000,513.781318
6.000000,0.500000,895.000000,513.165040
6.000000,0.500000,900.000000,509.791528
6.000000,0.500000,905.000000,503.756896
6.000000,0.500000,910.000000,494.957110
6.000000,0.500000,915.000000,483.443194
6.000000,0.500000,920.000000,469.157136
6.000000,0.500000,925.000000,452.072533
6.000000,0.500000,930.000000,432.079582
6.000000,0.500000,935.000000,409.133079
6.000000,0.500000,940.000000,383.106016
6.000000,0.500000,945.000000,353.963483
6.000000,0.500000,950.000000,321.496470
6.000000,0.600000,800.000000,-179.539140
6.000000,0.600000,805.000000,-101.108627
6.000000,0.600000,810.000000,-29.309661
6.000000,0.600000,815.000000,36.304453
6.000000,0.600000,820.000000,96.138631
6.000000,0.600000,825.000000,150.561288
6.000000,0.600000,830.000000,199.902756
6.000000,0.600000,835.000000,244.468070
6.000000,0.600000,840.000000,284.528175
6.000000,0.600000,845.000000,320.328680
6.000000,0.600000,850.000000,352.090153
6.000000,0.600000,855.000000,380.013539
6.000000,0.600000,860.000000,404.274628
6.000000,0.600000,865.000000,425.032383
6.000000,0.600000,870.000000,442.406576
6.000000,0.600000,875.000000,456.562901
6.000000,0.600000,880.000000,467.557348
6.000000,0.600000,885.000000,475.451825
6.000000,0.600000,890.000000,480.416560
6.000000,0.600000,895.000000,482.414301
6.000000,0.600000,900.000000,481.514917
6.000000,0.600000,905.000000,477.721063
6.000000,0.600000,910.000000,471.054993
6.000000,0.600000,915.000000,461.490570
6.000000,0.600000,920.000000,449.029782
6.000000,0.600000,925.000000,433.603095
6.000000,0.600000,930.000000,415.181295
6.000000,0.600000,935.000000,393.674009
6.000000,0.600000,940.000000,369.015156
6.000000,0.600000,945.000000,341.090546
6.000000,0.600000,950.000000,309.769836
6.000000,0.700000,800.000000,-297.146402
6.000000,0.700000,805.000000,-211.030363
6.000000,0.700000,810.000000,-132.027811
6.000000,0.700000,815.000000,-59.657064
6.000000,0.700000,820.000000,6.519404
6.000000,0.700000,825.000000,66.897684
6.000000,0.700000,830.000000,121.835724
6.000000,0.700000,835.000000,171.660361
6.000000,0.700000,840.000000,216.664681
6.000000,0.700000,845.000000,257.113657
6.000000,0.700000,850.000000,293.245511
6.000000,0.700000,855.000000,325.276785
6.000000,0.700000,860.000000,353.401752
6.000000,0.700000,865.000000,377.779293
6.000000,0.700000,870.000000,398.574121
6.000000,0.700000,875.000000,415.911708
6.000000,0.700000,880.000000,429.897890
6.000000,0.700000,885.000000,440.630176
6.000000,0.700000,890.000000,448.197504
6.000000,0.700000,895.000000,452.663696
6.000000,0.700000,900.000000,454.057870
6.000000,0.700000,905.000000,452.408783
6.000000,0.700000,910.000000,447.711152
6.000000,0.700000,915.000000,440.048973
6.000000,0.700000,920.000000,429.328071
6.000000,0.700000,925.000000,415.496046
6.000000,0.700000,930.000000,398.603118
6.000000,0.700000,935.000000,378.493261
6.000000,0.700000,940.000000,355.107545
6.000000,0.700000,945.000000,328.409949
6.000000,0.700000,950.000000,298.226427
6.000000,0.800000,800.000000,-407.738562
6.000000,0.800000,805.000000,-314.507200
6.000000,0.800000,810.000000,-228.835607
6.000000,0.800000,815.000000,-150.209101
6.000000,0.800000,820.000000,-78.159369
6.000000,0.800000,825.000000,-12.264155
6.000000,0.800000,830.000000,47.860609
6.000000,0.800000,835.000000,102.562388
6.000000,0.800000,840.000000,152.155194
6.000000,0.800000,845.000000,196.922280
6.000000,0.800000,850.000000,237.118493
6.000000,0.800000,855.000000,272.974996
6.000000,0.800000,860.000000,304.699524
6.000000,0.800000,865.000000,332.467458
6.000000,0.800000,870.000000,356.429747
6.000000,0.800000,875.000000,376.774598
6.000000,0.800000,880.000000,393.585393
6.000000,0.800000,885.000000,406.965992
6.000000,0.800000,890.000000,417.014861
6.000000,0.800000,895.000000,423.764004
6.000000,0.800000,900.000000,427.336871
6.000000,0.800000,905.000000,427.768742
6.000000,0.800000,910.000000,425.014714
6.000000,0.800000,915.000000,419.079434
6.000000,0.800000,920.000000,410.051963
6.000000,0.800000,925.000000,397.799415
6.000000,0.800000,930.000000,382.329377
6.000000,0.800000,935.000000,363.576284
6.000000,0.800000,940.000000,341.473731
6.000000,0.800000,945.000000,315.913318
6.000000,0.800000,950.000000,286.819943
6.000000,0.900000,800.000000,-512.438711
6.000000,0.900000,805.000000,-412.555156
6.000000,0.900000,810.000000,-320.652460
6.000000,0.900000,815.000000,-236.174829
6.000000,0.900000,820.000000,-158.634505
6.000000,0.900000,825.000000,-87.581080
6.000000,0.900000,830.000000,-22.605621
6.000000,0.900000,835.000000,36.658987
6.000000,0.900000,840.000000,90.546700
6.000000,0.900000,845.000000,139.358183
6.000000,0.900000,850.000000,183.364105
6.000000,0.900000,855.000000,222.809515
6.000000,0.900000,860.000000,257.914891
6.000000,0.900000,865.000000,288.867137
6.000000,0.900000,870.000000,315.849374
6.000000,0.900000,875.000000,339.001070
6.000000,0.900000,880.000000,358.473087
6.000000,0.900000,885.000000,374.355280
6.000000,0.900000,890.000000,386.747889
6.000000,0.900000,895.000000,395.757962
6.000000,0.900000,900.000000,401.395375
6.000000,0.900000,905.000000,403.753975
6.000000,0.900000,910.000000,402.788633
6.000000,0.900000,915.000000,398.635786
6.000000,0.900000,920.000000,391.175014
6.000000,0.900000,925.000000,380.420418
6.000000,0.900000,930.000000,366.353935
6.000000,0.900000,935.000000,348.907016
6.000000,0.900000,940.000000,328.012209
6.000000,0.900000,945.000000,303.595660
6.000000,0.900000,950.000000,275.555455
6.000000,1.000000,800.000000,-612.098852
6.000000,1.000000,805.000000,-505.948411
6.000000,1.000000,810.000000,-408.174122
6.000000,1.000000,815.000000,-318.187671
6.000000,1.000000,820.000000,-235.476064
6.000000,1.000000,825.000000,-159.564224
6.000000,1.000000,830.000000,-90.019439
6.000000,1.000000,835.000000,-26.455777
6.000000,1.000000,840.000000,31.479820
6.000000,1.000000,845.000000,84.104704
6.000000,1.000000,850.000000,131.704704
6.000000,1.000000,855.000000,174.538162
6.000000,1.000000,860.000000,212.837739
6.000000,1.000000,865.000000,246.797069
6.000000,1.000000,870.000000,276.617255
6.000000,1.000000,875.000000,302.462368
6.000000,1.000000,880.000000,324.437192
6.000000,1.000000,885.000000,342.673377
6.000000,1.000000,890.000000,357.361418
6.000000,1.000000,895.000000,368.424760
6.000000,1.000000,900.000000,376.087449
6.000000,1.000000,905.000000,380.311669
6.000000,1.000000,910.000000,381.098293
6.000000,1.000000,915.000000,378.580488
6.000000,1.000000,920.000000,372.665405
6.000000,1.000000,925.000000,363.338713
6.000000,1.000000,930.000000,350.643569
6.000000,1.000000,935.000000,334.469888
6.000000,1.000000,940.000000,314.731653
6.000000,1.000000,945.000000,291.441363
6.000000,1.000000,950.000000,264.402306
6.000000,1.100000,800.000000,-707.383527
6.000000,1.100000,805.000000,-595.299034
6.000000,1.100000,810.000000,-491.954069
6.000000,1.100000,815.000000,-396.747420
6.000000,1.100000,820.000000,-309.138985
6.000000,1.100000,825.000000,-228.620606
6.000000,1.100000,830.000000,-154.746169
6.000000,1.100000,835.000000,-87.108521
6.000000,1.100000,840.000000,-25.336235
6.000000,1.100000,845.000000,30.904101
6.000000,1.100000,850.000000,81.912910
6.000000,1.100000,855.000000,127.961329
6.000000,1.100000,860.000000,169.293735
6.000000,1.100000,865.000000,206.122935
6.000000,1.100000,870.000000,238.644302
6.000000,1.100000,875.000000,267.028494
6.000000,1.100000,880.000000,291.410916
6.000000,1.100000,885.000000,311.963113
6.000000,1.100000,890.000000,328.701784
6.000000,1.100000,895.000000,341.854812
6.000000,1.100000,900.000000,351.391361
6.000000,1.100000,905.000000,357.406240
6.000000,1.100000,910.000000,359.904477
6.000000,1.100000,915.000000,358.955590
6.000000,1.100000,920.000000,354.490974
6.000000,1.100000,925.000000,346.623539
6.000000,1.100000,930.000000,335.203652
6.000000,1.100000,935.000000,320.249581
6.000000,1.100000,940.000000,301.667332
6.000000,1.100000,945.000000,279.454592
6.000000,1.100000,950.000000,253.416203
6.000000,1.200000,800.000000,-798.822928
6.000000,1.200000,805.000000,-681.080658
6.000000,1.200000,810.000000,-572.434725
6.000000,1.200000,815.000000,-472.256662
6.000000,1.200000,820.000000,-379.982978
6.000000,1.200000,825.000000,-295.080600
6.000000,1.200000,830.000000,-217.085802
6.000000,1.200000,835.000000,-145.566685
6.000000,1.200000,840.000000,-80.140702
6.000000,1.200000,845.000000,-20.456739
6.000000,1.200000,850.000000,33.799720
6.000000,1.200000,855.000000,82.912180
6.000000,1.200000,860.000000,127.136334
6.000000,1.200000,865.000000,166.694188
6.000000,1.200000,870.000000,201.793862
6.000000,1.200000,875.000000,232.569383
6.000000,1.200000,880.000000,259.314704
6.000000,1.200000,885.000000,281.977102
6.000000,1.200000,890.000000,300.856900
6.000000,1.200000,895.000000,315.912712
6.000000,1.200000,900.000000,327.265089
6.000000,1.200000,905.000000,335.006272
6.000000,1.200000,910.000000,339.133307
6.000000,1.200000,915.000000,339.664540
6.000000,1.200000,920.000000,336.714873
6.000000,1.200000,925.000000,330.162560
6.000000,1.200000,930.000000,320.020639
6.000000,1.200000,935.000000,306.253875
6.000000,1.200000,940.000000,288.812465
6.000000,1.200000,945.000000,267.618536
6.000000,1.200000,950.000000,242.587131
6.000000,1.300000,800.000000,-886.857166
6.000000,1.300000,805.000000,-763.693658
6.000000,1.300000,810.000000,-649.977644
6.000000,1.300000,815.000000,-545.050898
6.000000,1.300000,820.000000,-448.310748
6.000000,1.300000,825.000000,-359.216744
6.000000,1.300000,830.000000,-277.281091
6.000000,1.300000,835.000000,-202.052531
6.000000,1.300000,840.000000,-133.133218
6.000000,1.300000,845.000000,-70.156427
6.000000,1.300000,850.000000,-12.793987
6.000000,1.300000,855.000000,39.249583
6.000000,1.300000,860.000000,86.240949
6.000000,1.300000,865.000000,128.391212
6.000000,1.300000,870.000000,165.986626
6.000000,1.300000,875.000000,199.139087
6.000000,1.300000,880.000000,228.042152
6.000000,1.300000,885.000000,252.819877
6.000000,1.300000,890.000000,273.629010
6.000000,1.300000,895.000000,290.560208
6.000000,1.300000,900.000000,303.687048
6.000000,1.300000,905.000000,313.059170
6.000000,1.300000,910.000000,318.770122
6.000000,1.300000,915.000000,320.811505
6.000000,1.300000,920.000000,319.214940
6.000000,1.300000,925.000000,313.973819
6.000000,1.300000,930.000000,305.062730
6.000000,1.300000,935.000000,292.465681
6.000000,1.300000,940.000000,276.107479
6.000000,1.300000,945.000000,255.942445
6.000000,1.300000,950.000000,231.860638
6.000000,1.400000,800.000000,-971.825063
6.000000,1.400000,805.000000,-843.465192
6.000000,1.400000,810.000000,-724.882803
6.000000,1.400000,815.000000,-615.394188
6.000000,1.400000,820.000000,-514.372757
6.000000,1.400000,825.000000,-421.256987
6.000000,1.400000,830.000000,-335.540456
6.000000,1.400000,835.000000,-256.753162
6.000000,1.400000,840.000000,-184.482436
6.000000,1.400000,845.000000,-118.346415
6.000000,1.400000,850.000000,-58.003679
6.000000,1.400000,855.000000,-3.147145
6.000000,1.400000,860.000000,46.500603
6.000000,1.400000,865.000000,91.185901
6.000000,1.400000,870.000000,131.129553
6.000000,1.400000,875.000000,166.529779
6.000000,1.400000,880.000000,197.531940
6.000000,1.400000,885.000000,224.334257
6.000000,1.400000,890.000000,247.038778
6.000000,1.400000,895.000000,265.767873
6.000000,1.400000,900.000000,280.586076
6.000000,1.400000,905.000000,291.566995
6.000000,1.400000,910.000000,298.782413
6.000000,1.400000,915.000000,302.255221
6.000000,1.400000,920.000000,301.981361
6.000000,1.400000,925.000000,298.040507
6.000000,1.400000,930.000000,290.336765
6.000000,1.400000,935.000000,278.862653
6.000000,1.400000,940.000000,263.544210
6.000000,1.400000,945.000000,244.403487
6.000000,1.400000,950.000000,221.257067
6.500000,0.400000,800.000000,-44.269903
6.500000,0.400000,805.000000,18.881206
6.500000,0.400000,810.000000,76.270498
6.500000,0.400000,815.000000,128.285730
6.500000,0.400000,820.000000,175.278066
6.500000,0.400000,825.000000,217.567131
6.500000,0.400000,830.000000,255.445790
6.500000,0.400000,835.000000,289.175140
6.500000,0.400000,840.000000,318.989394
6.500000,0.400000,845.000000,345.111783
6.500000,0.400000,850.000000,367.723690
6.500000,0.400000,855.000000,387.001953
6.500000,0.400000,860.000000,403.096461
6.500000,0.400000,865.000000,416.141543
6.500000,0.400000,870.000000,426.245694
6.500000,0.400000,875.000000,433.516619
6.500000,0.400000,880.000000,438.019398
6.500000,0.400000,885.000000,439.821870
6.500000,0.400000,890.000000,438.978615
6.500000,0.400000,895.000000,435.525895
6.500000,0.400000,900.000000,429.460569
6.500000,0.400000,905.000000,420.786566
6.500000,0.400000,910.000000,409.475719
6.500000,0.400000,915.000000,395.574189
6.500000,0.400000,920.000000,378.947194
6.500000,0.400000,925.000000,359.553133
6.500000,0.400000,930.000000,337.383479
6.500000,0.400000,935.000000,312.280942
6.500000,0.400000,940.000000,284.136715
6.500000,0.400000,945.000000,252.910535
6.500000,0.400000,950.000000,218.393676
6.500000,0.500000,800.000000,-186.764995
6.500000,0.500000,805.000000,-113.792990
6.500000,0.500000,810.000000,-47.205915
6.500000,0.500000,815.000000,13.426118
6.500000,0.500000,820.000000,68.493510
6.500000,0.500000,825.000000,118.351472
6.500000,0.500000,830.000000,163.319626
6.500000,0.500000,835.000000,203.692338
6.500000,0.500000,840.000000,239.732059
6.500000,0.500000,845.000000,271.676524
6.500000,0.500000,850.000000,299.739200
6.500000,0.500000,855.000000,324.113971
6.500000,0.500000,860.000000,344.970479
6.500000,0.500000,865.000000,362.461066
6.500000,0.500000,870.000000,376.715770
6.500000,0.500000,875.000000,387.848404
6.500000,0.500000,880.000000,395.940397
6.500000,0.500000,885.000000,401.108788
6.500000,0.500000,890.000000,403.340937
6.500000,0.500000,895.000000,402.802520
6.500000,0.500000,900.000000,399.414828
6.500000,0.500000,905.000000,393.228399
6.500000,0.500000,910.000000,384.244333
6.500000,0.500000,915.000000,372.435864
6.500000,0.500000,920.000000,357.759837
6.500000,0.500000,925.000000,340.235611
6.500000,0.500000,930.000000,319.712693
6.500000,0.500000,935.000000,296.159983
6.500000,0.500000,940.000000,269.468862
6.500000,0.500000,945.000000,239.537747
6.500000,0.500000,950.000000,206.233792
6.500000,0.600000,800.000000,-318.191047
6.500000,0.600000,805.000000,-236.400968
6.500000,0.600000,810.000000,-161.550648
6.500000,0.600000,815.000000,-93.171271
6.500000,0.600000,820.000000,-30.836200
6.500000,0.600000,825.000000,25.840527
6.500000,0.600000,830.000000,77.209222
6.500000,0.600000,835.000000,123.588556
6.500000,0.600000,840.000000,165.265718
6.500000,0.600000,845.000000,202.500209
6.500000,0.600000,850.000000,235.525476
6.500000,0.600000,855.000000,264.553241
6.500000,0.600000,860.000000,289.770378
6.500000,0.600000,865.000000,311.332263
6.500000,0.600000,870.000000,329.406898
6.500000,0.600000,875.000000,344.115104
6.500000,0.600000,880.000000,355.568457
6.500000,0.600000,885.000000,363.843835
6.500000,0.600000,890.000000,369.012390
6.500000,0.600000,895.000000,371.160551
6.500000,0.600000,900.000000,370.288908
6.500000,0.600000,905.000000,366.459866
6.500000,0.600000,910.000000,359.624255
6.500000,0.600000,915.000000,349.879023
6.500000,0.600000,920.000000,337.075366
6.500000,0.600000,925.000000,321.294354
6.500000,0.600000,930.000000,302.391113
6.500000,0.600000,935.000000,280.323103
6.500000,0.600000,940.000000,255.021711
6.500000,0.600000,945.000000,226.361887
6.500000,0.600000,950.000000,194.209257
6.500000,0.700000,800.000000,-440.785735
6.500000,0.700000,805.000000,-350.936369
6.500000,0.700000,810.000000,-268.532287
6.500000,0.700000,815.000000,-193.068238
6.500000,0.700000,820.000000,-124.083646
6.500000,0.700000,825.000000,-61.163749
6.500000,0.700000,830.000000,-3.929500
6.500000,0.700000,835.000000,47.960468
6.500000,0.700000,840.000000,94.816393
6.500000,0.700000,845.000000,136.917955
6.500000,0.700000,850.000000,174.517027
6.500000,0.700000,855.000000,207.841638
6.500000,0.700000,860.000000,237.096686
6.500000,0.700000,865.000000,262.456737
6.500000,0.700000,870.000000,284.088230
6.500000,0.700000,875.000000,302.085901
6.500000,0.700000,880.000000,316.693518
6.500000,0.700000,885.000000,327.853980
6.500000,0.700000,890.000000,335.805726
6.500000,0.700000,895.000000,340.499373
6.500000,0.700000,900.000000,342.022977
6.500000,0.700000,905.000000,340.412611
6.500000,0.700000,910.000000,335.687243
6.500000,0.700000,915.000000,327.847114
6.500000,0.700000,920.000000,316.873031
6.500000,0.700000,925.000000,302.733632
6.500000,0.700000,930.000000,285.378229
6.500000,0.700000,935.000000,264.758779
6.500000,0.700000,940.000000,240.795066
6.500000,0.700000,945.000000,213.368742
6.500000,0.700000,950.000000,182.391129
6.500000,0.800000,800.000000,-556.121175
6.500000,0.800000,805.000000,-458.810525
6.500000,0.800000,810.000000,-369.412985
6.500000,0.800000,815.000000,-287.388924
6.500000,0.800000,820.000000,-212.245702
6.500000,0.800000,825.000000,-143.541322
6.500000,0.800000,830.000000,-80.869558
6.500000,0.800000,835.000000,-23.867584
6.500000,0.800000,840.000000,27.796614
6.500000,0.800000,845.000000,74.421744
6.500000,0.800000,850.000000,116.276994
6.500000,0.800000,855.000000,153.605641
6.500000,0.800000,860.000000,186.626645
6.500000,0.800000,865.000000,215.521857
6.500000,0.800000,870.000000,240.489741
6.500000,0.800000,875.000000,261.642003
6.500000,0.800000,880.000000,279.120722
6.500000,0.800000,885.000000,293.118892
6.500000,0.800000,890.000000,303.612467
6.500000,0.800000,895.000000,310.730224
6.500000,0.800000,900.000000,314.527695
6.500000,0.800000,905.000000,315.036899
6.500000,0.800000,910.000000,312.297221
6.500000,0.800000,915.000000,306.304764
6.500000,0.800000,920.000000,297.058562
6.500000,0.800000,925.000000,284.531522
6.500000,0.800000,930.000000,268.682110
6.500000,0.800000,935.000000,249.453238
6.500000,0.800000,940.000000,226.784068
6.500000,0.800000,945.000000,200.567734
6.500000,0.800000,950.000000,170.678171
6.500000,0.900000,800.000000,-665.351943
6.500000,0.900000,805.000000,-561.065954
6.500000,0.900000,810.000000,-465.130862
6.500000,0.900000,815.000000,-376.974400
6.500000,0.900000,820.000000,-296.073453
6.500000,0.900000,825.000000,-221.960111
6.500000,0.900000,830.000000,-154.202266
6.500000,0.900000,835.000000,-92.416644
6.500000,0.900000,840.000000,-36.250485
6.500000,0.900000,845.000000,14.613034
6.500000,0.900000,850.000000,60.459563
6.500000,0.900000,855.000000,101.546841
6.500000,0.900000,860.000000,138.107112
6.500000,0.900000,865.000000,170.341892
6.500000,0.900000,870.000000,198.440770
6.500000,0.900000,875.000000,222.517856
6.500000,0.900000,880.000000,242.844385
6.500000,0.900000,885.000000,259.399014
6.500000,0.900000,890.000000,272.365248
6.500000,0.900000,895.000000,281.787617
6.500000,0.900000,900.000000,287.744853
6.500000,0.900000,905.000000,290.275833
6.500000,0.900000,910.000000,289.441318
6.500000,0.900000,915.000000,285.193010
6.500000,0.900000,920.000000,277.609727
6.500000,0.900000,925.000000,266.660706
6.500000,0.900000,930.000000,252.262775
6.500000,0.900000,935.000000,234.394055
6.500000,0.900000,940.000000,212.979200
6.500000,0.900000,945.000000,187.929710
6.500000,0.900000,950.000000,159.162555
6.500000,1.000000,800.000000,-769.355581
6.500000,1.000000,805.000000,-658.498659
6.500000,1.000000,810.000000,-556.411409
6.500000,1.000000,815.000000,-462.473423
6.500000,1.000000,820.000000,-376.149504
6.500000,1.000000,825.000000,-296.941300
6.500000,1.000000,830.000000,-224.391937
6.500000,1.000000,835.000000,-158.098561
6.500000,1.000000,840.000000,-97.688534
6.500000,1.000000,845.000000,-42.827676
6.500000,1.000000,850.000000,6.785433
6.500000,1.000000,855.000000,51.422362
6.500000,1.000000,860.000000,91.328036
6.500000,1.000000,865.000000,126.709231
6.500000,1.000000,870.000000,157.770984
6.500000,1.000000,875.000000,184.664923
6.500000,1.000000,880.000000,207.633109
6.500000,1.000000,885.000000,226.684683
6.500000,1.000000,890.000000,241.977484
6.500000,1.000000,895.000000,253.595185
6.500000,1.000000,900.000000,261.620700
6.500000,1.000000,905.000000,266.103141
6.500000,1.000000,910.000000,267.086398
6.500000,1.000000,915.000000,264.572832
6.500000,1.000000,920.000000,258.598867
6.500000,1.000000,925.000000,249.126429
6.500000,1.000000,930.000000,236.126839
6.500000,1.000000,935.000000,219.558438
6.500000,1.000000,940.000000,199.339918
6.500000,1.000000,945.000000,175.467185
6.500000,1.000000,950.000000,147.751557
6.500000,1.100000,800.000000,-868.817590
6.500000,1.100000,805.000000,-751.740424
6.500000,1.100000,810.000000,-643.810813
6.500000,1.100000,815.000000,-544.398889
6.500000,1.100000,820.000000,-452.941177
6.500000,1.100000,825.000000,-368.900853
6.500000,1.100000,830.000000,-291.811078
6.500000,1.100000,835.000000,-221.245568
6.500000,1.100000,840.000000,-156.812566
6.500000,1.100000,845.000000,-98.161185
6.500000,1.100000,850.000000,-44.974828
6.500000,1.100000,855.000000,3.031382
6.500000,1.100000,860.000000,46.114560
6.500000,1.100000,865.000000,84.481440
6.500000,1.100000,870.000000,118.401509
6.500000,1.100000,875.000000,147.991849
6.500000,1.100000,880.000000,173.411936
6.500000,1.100000,885.000000,194.853236
6.500000,1.100000,890.000000,212.382244
6.500000,1.100000,895.000000,226.095983
6.500000,1.100000,900.000000,236.118137
6.500000,1.100000,905.000000,242.465501
6.500000,1.100000,910.000000,245.200893
6.500000,1.100000,915.000000,244.343290
6.500000,1.100000,920.000000,239.874396
6.500000,1.100000,925.000000,231.851454
6.500000,1.100000,930.000000,220.239053
6.500000,1.100000,935.000000,204.949849
6.500000,1.100000,940.000000,185.946041
6.500000,1.100000,945.000000,163.160148
6.500000,1.100000,950.000000,136.457144
6.500000,1.200000,800.000000,-964.285576
6.500000,1.200000,805.000000,-841.276915
6.500000,1.200000,810.000000,-727.789367
6.500000,1.200000,815.000000,-623.164613
6.500000,1.200000,820.000000,-526.814776
6.500000,1.200000,825.000000,-438.177055
6.500000,1.200000,830.000000,-356.763958
6.500000,1.200000,835.000000,-282.130300
6.500000,1.200000,840.000000,-213.865878
6.500000,1.200000,845.000000,-151.603674
6.500000,1.200000,850.000000,-95.012427
6.500000,1.200000,855.000000,-43.794403
6.500000,1.200000,860.000000,2.319283
6.500000,1.200000,865.000000,43.568538
6.500000,1.200000,870.000000,80.146630
6.500000,1.200000,875.000000,112.259611
6.500000,1.200000,880.000000,140.146249
6.500000,1.200000,885.000000,163.804921
6.500000,1.200000,890.000000,183.515812
6.500000,1.200000,895.000000,199.272386
6.500000,1.200000,900.000000,211.187221
6.500000,1.200000,905.000000,219.330526
6.500000,1.200000,910.000000,223.756418
6.500000,1.200000,915.000000,224.490054
6.500000,1.200000,920.000000,221.542839
6.500000,1.200000,925.000000,214.932906
6.500000,1.200000,930.000000,204.606522
6.500000,1.200000,935.000000,190.559847
6.500000,1.200000,940.000000,172.715990
6.500000,1.200000,945.000000,151.000145
6.500000,1.200000,950.000000,125.341362
6.500000,1.300000,800.000000,-1056.205215
6.500000,1.300000,805.000000,-927.522914
6.500000,1.300000,810.000000,-808.719823
6.500000,1.300000,815.000000,-699.110220
6.500000,1.300000,820.000000,-598.082707
6.500000,1.300000,825.000000,-505.049417
6.500000,1.300000,830.000000,-419.507173
6.500000,1.300000,835.000000,-340.979764
6.500000,1.300000,840.000000,-269.051903
6.500000,1.300000,845.000000,-203.336704
6.500000,1.300000,850.000000,-143.488702
6.500000,1.300000,855.000000,-89.197706
6.500000,1.300000,860.000000,-40.183424
6.500000,1.300000,865.000000,3.800833
6.500000,1.300000,870.000000,42.983341
6.500000,1.300000,875.000000,77.577554
6.500000,1.300000,880.000000,107.712850
6.500000,1.300000,885.000000,133.609297
6.500000,1.300000,890.000000,155.326054
6.500000,1.300000,895.000000,173.023786
6.500000,1.300000,900.000000,186.748729
6.500000,1.300000,905.000000,196.669666
6.500000,1.300000,910.000000,202.727339
6.500000,1.300000,915.000000,205.003173
6.500000,1.300000,920.000000,203.510572
6.500000,1.300000,925.000000,198.221638
6.500000,1.300000,930.000000,189.210891
6.500000,1.300000,935.000000,176.361649
6.500000,1.300000,940.000000,159.619472
6.500000,1.300000,945.000000,138.995261
6.500000,1.300000,950.000000,114.333949
6.500000,1.400000,800.000000,-1144.956687
6.500000,1.400000,805.000000,-1010.816547
6.500000,1.400000,810.000000,-886.911789
6.500000,1.400000,815.000000,-772.526397
6.500000,1.400000,820.000000,-667.002652
6.500000,1.400000,825.000000,-569.752054
6.500000,1.400000,830.000000,-480.244874
6.500000,1.400000,835.000000,-397.985365
6.500000,1.400000,840.000000,-322.542797
6.500000,1.400000,845.000000,-253.514519
6.500000,1.400000,850.000000,-190.541281
6.500000,1.400000,855.000000,-133.300789
6.500000,1.400000,860.000000,-81.501669
6.500000,1.400000,865.000000,-34.906579
6.500000,1.400000,870.000000,6.791154
6.500000,1.400000,875.000000,43.705418
6.500000,1.400000,880.000000,76.083904
6.500000,1.400000,885.000000,104.083530
6.500000,1.400000,890.000000,127.784644
6.500000,1.400000,895.000000,147.373166
6.500000,1.400000,900.000000,162.883459
6.500000,1.400000,905.000000,174.453247
6.500000,1.400000,910.000000,182.090410
6.500000,1.400000,915.000000,185.857453
6.500000,1.400000,920.000000,185.770543
6.500000,1.400000,925.000000,181.831699
6.500000,1.400000,930.000000,174.052347
6.500000,1.400000,935.000000,162.364608
6.500000,1.400000,940.000000,146.723513
6.500000,1.400000,945.000000,127.140885
6.500000,1.400000,950.000000,103.441452
7.000000,0.400000,800.000000,-170.146453
7.000000,0.400000,805.000000,-104.647789
7.000000,0.400000,810.000000,-45.152265
7.000000,0.400000,815.000000,8.746221
7.000000,0.400000,820.000000,57.417019
7.000000,0.400000,825.000000,101.195432
7.000000,0.400000,830.000000,140.387679
7.000000,0.400000,835.000000,175.269474
7.000000,0.400000,840.000000,206.088559
7.000000,0.400000,845.000000,233.076155
7.000000,0.400000,850.000000,256.427547
7.000000,0.400000,855.000000,276.326909
7.000000,0.400000,860.000000,292.932902
7.000000,0.400000,865.000000,306.386730
7.000000,0.400000,870.000000,316.807702
7.000000,0.400000,875.000000,324.288251
7.000000,0.400000,880.000000,328.942393
7.000000,0.400000,885.000000,330.806587
7.000000,0.400000,890.000000,329.936967
7.000000,0.400000,895.000000,326.381386
7.000000,0.400000,900.000000,320.126305
7.000000,0.400000,905.000000,311.250049
7.000000,0.400000,910.000000,299.650495
7.000000,0.400000,915.000000,285.347697
7.000000,0.400000,920.000000,268.249651
7.000000,0.400000,925.000000,248.382852
7.000000,0.400000,930.000000,225.596673
7.000000,0.400000,935.000000,199.828930
7.000000,0.400000,940.000000,170.973182
7.000000,0.400000,945.000000,138.895464
7.000000,0.400000,950.000000,103.454699
7.000000,0.500000,800.000000,-317.931809
7.000000,0.500000,805.000000,-242.176858
7.000000,0.500000,810.000000,-173.077630
7.000000,0.500000,815.000000,-110.184317
7.000000,0.500000,820.000000,-53.086847
7.000000,0.500000,825.000000,-1.414211
7.000000,0.500000,830.000000,45.171438
7.000000,0.500000,835.000000,86.976672
7.000000,0.500000,840.000000,124.278701
7.000000,0.500000,845.000000,157.327801
7.000000,0.500000,850.000000,186.349024
7.000000,0.500000,855.000000,211.545808
7.000000,0.500000,860.000000,233.097651
7.000000,0.500000,865.000000,251.153879
7.000000,0.500000,870.000000,265.884375
7.000000,0.500000,875.000000,277.379461
7.000000,0.500000,880.000000,285.712212
7.000000,0.500000,885.000000,291.076333
7.000000,0.500000,890.000000,293.393830
7.000000,0.500000,895.000000,292.844416
7.000000,0.500000,900.000000,289.376382
7.000000,0.500000,905.000000,283.028648
7.000000,0.500000,910.000000,273.812509
7.000000,0.500000,915.000000,261.685613
7.000000,0.500000,920.000000,246.646484
7.000000,0.500000,925.000000,228.622433
7.000000,0.500000,930.000000,207.553639
7.000000,0.500000,935.000000,183.374626
7.000000,0.500000,940.000000,155.955972
7.000000,0.500000,945.000000,125.232430
7.000000,0.500000,950.000000,91.076362
7.000000,0.600000,800.000000,-454.346497
7.000000,0.600000,805.000000,-369.380488
7.000000,0.600000,810.000000,-291.650603
7.000000,0.600000,815.000000,-220.666660
7.000000,0.600000,820.000000,-155.981005
7.000000,0.600000,825.000000,-97.190732
7.000000,0.600000,830.000000,-43.926144
7.000000,0.600000,835.000000,4.144585
7.000000,0.600000,840.000000,47.324395
7.000000,0.600000,845.000000,85.886235
7.000000,0.600000,850.000000,120.076021
7.000000,0.600000,855.000000,150.115870
7.000000,0.600000,860.000000,176.203362
7.000000,0.600000,865.000000,198.509879
7.000000,0.600000,870.000000,217.191395
7.000000,0.600000,875.000000,232.396395
7.000000,0.600000,880.000000,244.240969
7.000000,0.600000,885.000000,252.796187
7.000000,0.600000,890.000000,258.161613
7.000000,0.600000,895.000000,260.379829
7.000000,0.600000,900.000000,259.494574
7.000000,0.600000,905.000000,255.604069
7.000000,0.600000,910.000000,248.597339
7.000000,0.600000,915.000000,238.566258
7.000000,0.600000,920.000000,225.455354
7.000000,0.600000,925.000000,209.248026
7.000000,0.600000,930.000000,189.843956
7.000000,0.600000,935.000000,167.198820
7.000000,0.600000,940.000000,141.197414
7.000000,0.600000,945.000000,111.805615
7.000000,0.600000,950.000000,78.835965
7.000000,0.700000,800.000000,-581.670118
7.000000,0.700000,805.000000,-488.284987
7.000000,0.700000,810.000000,-402.664352
7.000000,0.700000,815.000000,-324.280229
7.000000,0.700000,820.000000,-252.649764
7.000000,0.700000,825.000000,-187.340182
7.000000,0.700000,830.000000,-127.951990
7.000000,0.700000,835.000000,-74.129815
7.000000,0.700000,840.000000,-25.546792
7.000000,0.700000,845.000000,18.090998
7.000000,0.700000,850.000000,57.048643
7.000000,0.700000,855.000000,91.565266
7.000000,0.700000,860.000000,121.854798
7.000000,0.700000,865.000000,148.108672
7.000000,0.700000,870.000000,170.479548
7.000000,0.700000,875.000000,189.120911
7.000000,0.700000,880.000000,204.231705
7.000000,0.700000,885.000000,215.824062
7.000000,0.700000,890.000000,223.987917
7.000000,0.700000,895.000000,228.901544
7.000000,0.700000,900.000000,230.509051
7.000000,0.700000,905.000000,228.888012
7.000000,0.700000,910.000000,224.027433
7.000000,0.700000,915.000000,215.992462
7.000000,0.700000,920.000000,204.769135
7.000000,0.700000,925.000000,190.229592
7.000000,0.700000,930.000000,172.456099
7.000000,0.700000,935.000000,151.286422
7.000000,0.700000,940.000000,126.660331
7.000000,0.700000,945.000000,98.547012
7.000000,0.700000,950.000000,66.754117
7.000000,0.800000,800.000000,-701.509214
7.000000,0.800000,805.000000,-600.329607
7.000000,0.800000,810.000000,-507.403154
7.000000,0.800000,815.000000,-422.166181
7.000000,0.800000,820.000000,-344.102569
7.000000,0.800000,825.000000,-272.751295
7.000000,0.800000,830.000000,-207.684683
7.000000,0.800000,835.000000,-148.525106
7.000000,0.800000,840.000000,-94.923118
7.000000,0.800000,845.000000,-46.565056
7.000000,0.800000,850.000000,-3.167851
7.000000,0.800000,855.000000,35.523481
7.000000,0.800000,860.000000,69.738738
7.000000,0.800000,865.000000,99.678001
7.000000,0.800000,870.000000,125.526350
7.000000,0.800000,875.000000,147.438100
7.000000,0.800000,880.000000,165.580043
7.000000,0.800000,885.000000,180.035704
7.000000,0.800000,890.000000,190.917777
7.000000,0.800000,895.000000,198.269126
7.000000,0.800000,900.000000,202.263466
7.000000,0.800000,905.000000,202.841126
7.000000,0.800000,910.000000,200.028759
7.000000,0.800000,915.000000,193.907348
7.000000,0.800000,920.000000,184.466616
7.000000,0.800000,925.000000,171.590713
7.000000,0.800000,930.000000,155.354891
7.000000,0.800000,935.000000,135.634139
7.000000,0.800000,940.000000,112.335040
7.000000,0.800000,945.000000,85.455087
7.000000,0.800000,950.000000,54.786212
7.000000,0.900000,800.000000,-815.046436
7.000000,0.900000,805.000000,-706.580213
7.000000,0.900000,810.000000,-606.824206
7.000000,0.900000,815.000000,-515.180848
7.000000,0.900000,820.000000,-431.102386
7.000000,0.900000,825.000000,-354.100911
7.000000,0.900000,830.000000,-283.721901
7.000000,0.900000,835.000000,-219.566531
7.000000,0.900000,840.000000,-161.263843
7.000000,0.900000,845.000000,-108.481391
7.000000,0.900000,850.000000,-60.919028
7.000000,0.900000,855.000000,-18.306759
7.000000,0.900000,860.000000,19.599024
7.000000,0.900000,865.000000,52.996694
7.000000,0.900000,870.000000,82.117891
7.000000,0.900000,875.000000,107.130398
7.000000,0.900000,880.000000,128.148893
7.000000,0.900000,885.000000,145.318663
7.000000,0.900000,890.000000,158.749632
7.000000,0.900000,895.000000,168.493242
7.000000,0.900000,900.000000,174.731338
7.000000,0.900000,905.000000,177.401687
7.000000,0.900000,910.000000,176.598916
7.000000,0.900000,915.000000,172.280490
7.000000,0.900000,920.000000,164.526570
7.000000,0.900000,925.000000,153.308845
7.000000,0.900000,930.000000,138.551211
7.000000,0.900000,935.000000,120.216396
7.000000,0.900000,940.000000,98.212548
7.000000,0.900000,945.000000,72.543477
7.000000,0.900000,950.000000,42.988367
7.000000,1.000000,800.000000,-923.182343
7.000000,1.000000,805.000000,-807.852283
7.000000,1.000000,810.000000,-701.670730
7.000000,1.000000,815.000000,-603.986318
7.000000,1.000000,820.000000,-514.242533
7.000000,1.000000,825.000000,-431.918601
7.000000,1.000000,830.000000,-356.534306
7.000000,1.000000,835.000000,-287.670518
7.000000,1.000000,840.000000,-224.935667
7.000000,1.000000,845.000000,-167.979315
7.000000,1.000000,850.000000,-116.484967
7.000000,1.000000,855.000000,-70.168282
7.000000,1.000000,860.000000,-28.772489
7.000000,1.000000,865.000000,7.931339
7.000000,1.000000,870.000000,40.132834
7.000000,1.000000,875.000000,68.064446
7.000000,1.000000,880.000000,91.828121
7.000000,1.000000,885.000000,111.580801
7.000000,1.000000,890.000000,127.407142
7.000000,1.000000,895.000000,139.511278
7.000000,1.000000,900.000000,147.852149
7.000000,1.000000,905.000000,152.554572
7.000000,1.000000,910.000000,153.633489
7.000000,1.000000,915.000000,151.084492
7.000000,1.000000,920.000000,145.022454
7.000000,1.000000,925.000000,135.327658
7.000000,1.000000,930.000000,122.005415
7.000000,1.000000,935.000000,105.028480
7.000000,1.000000,940.000000,84.284476
7.000000,1.000000,945.000000,59.784226
7.000000,1.000000,950.000000,31.357321
7.000000,1.100000,800.000000,-1026.621475
7.000000,1.100000,805.000000,-904.786254
7.000000,1.100000,810.000000,-792.509817
7.000000,1.100000,815.000000,-689.107041
7.000000,1.100000,820.000000,-593.995220
7.000000,1.100000,825.000000,-506.627973
7.000000,1.100000,830.000000,-426.500403
7.000000,1.100000,835.000000,-353.173849
7.000000,1.100000,840.000000,-286.236918
7.000000,1.100000,845.000000,-225.321849
7.000000,1.100000,850.000000,-170.096416
7.000000,1.100000,855.000000,-120.262483
7.000000,1.100000,860.000000,-75.550638
7.000000,1.100000,865.000000,-35.726832
7.000000,1.100000,870.000000,-0.551249
7.000000,1.100000,875.000000,30.143484
7.000000,1.100000,880.000000,56.530455
7.000000,1.100000,885.000000,78.712079
7.000000,1.100000,890.000000,96.929691
7.000000,1.100000,895.000000,111.197228
7.000000,1.100000,900.000000,121.607579
7.000000,1.100000,905.000000,128.236454
7.000000,1.100000,910.000000,131.133796
7.000000,1.100000,915.000000,130.320343
7.000000,1.100000,920.000000,125.835111
7.000000,1.100000,925.000000,117.633542
7.000000,1.100000,930.000000,105.729701
7.000000,1.100000,935.000000,90.054085
7.000000,1.100000,940.000000,70.574653
7.000000,1.100000,945.000000,47.188706
7.000000,1.100000,950.000000,19.823679
7.000000,1.200000,800.000000,-1125.927348
7.000000,1.200000,805.000000,-997.906183
7.000000,1.200000,810.000000,-879.815015
7.000000,1.200000,815.000000,-770.966838
7.000000,1.200000,820.000000,-670.750386
7.000000,1.200000,825.000000,-578.574173
7.000000,1.200000,830.000000,-493.929978
7.000000,1.200000,835.000000,-416.353486
7.000000,1.200000,840.000000,-345.414166
7.000000,1.200000,845.000000,-280.727535
7.000000,1.200000,850.000000,-221.946166
7.000000,1.200000,855.000000,-168.758597
7.000000,1.200000,860.000000,-120.883217
7.000000,1.200000,865.000000,-78.064299
7.000000,1.200000,870.000000,-40.088182
7.000000,1.200000,875.000000,-6.726774
7.000000,1.200000,880.000000,22.150372
7.000000,1.200000,885.000000,46.760709
7.000000,1.200000,890.000000,67.181607
7.000000,1.200000,895.000000,83.537376
7.000000,1.200000,900.000000,95.893385
7.000000,1.200000,905.000000,104.427928
7.000000,1.200000,910.000000,109.080629
7.000000,1.200000,915.000000,109.888289
7.000000,1.200000,920.000000,106.980045
7.000000,1.200000,925.000000,100.240858
7.000000,1.200000,930.000000,89.687813
7.000000,1.200000,935.000000,75.302906
7.000000,1.200000,940.000000,57.006021
7.000000,1.200000,945.000000,34.751887
7.000000,1.200000,950.000000,8.400144
7.000000,1.300000,800.000000,-1221.559069
7.000000,1.300000,805.000000,-1087.612402
7.000000,1.300000,810.000000,-963.969223
7.000000,1.300000,815.000000,-849.914020
7.000000,1.300000,820.000000,-744.811069
7.000000,1.300000,825.000000,-648.042840
7.000000,1.300000,830.000000,-559.080398
7.000000,1.300000,835.000000,-477.440462
7.000000,1.300000,840.000000,-402.673991
7.000000,1.300000,845.000000,-334.380305
7.000000,1.300000,850.000000,-272.197251
7.000000,1.300000,855.000000,-215.800459
7.000000,1.300000,860.000000,-164.896494
7.000000,1.300000,865.000000,-119.217958
7.000000,1.300000,870.000000,-78.532792
7.000000,1.300000,875.000000,-42.631061
7.000000,1.300000,880.000000,-11.333520
7.000000,1.300000,885.000000,15.533563
7.000000,1.300000,890.000000,38.107336
7.000000,1.300000,895.000000,56.478049
7.000000,1.300000,900.000000,70.794920
7.000000,1.300000,905.000000,81.091871
7.000000,1.300000,910.000000,87.440682
7.000000,1.300000,915.000000,89.883220
7.000000,1.300000,920.000000,88.440568
7.000000,1.300000,925.000000,83.105978
7.000000,1.300000,930.000000,73.886533
7.000000,1.300000,935.000000,60.747323
7.000000,1.300000,940.000000,43.623987
7.000000,1.300000,945.000000,22.455112
7.000000,1.300000,950.000000,-2.851167
7.000000,1.400000,800.000000,-1313.896563
7.000000,1.400000,805.000000,-1174.262327
7.000000,1.400000,810.000000,-1045.290815
7.000000,1.400000,815.000000,-926.248411
7.000000,1.400000,820.000000,-816.447467
7.000000,1.400000,825.000000,-715.273548
7.000000,1.400000,830.000000,-622.174547
7.000000,1.400000,835.000000,-536.629890
7.000000,1.400000,840.000000,-458.191508
7.000000,1.400000,845.000000,-386.436698
7.000000,1.400000,850.000000,-320.989014
7.000000,1.400000,855.000000,-261.511541
7.000000,1.400000,860.000000,-207.699359
7.000000,1.400000,865.000000,-159.278214
7.000000,1.400000,870.000000,-116.016271
7.000000,1.400000,875.000000,-77.646659
7.000000,1.400000,880.000000,-44.016918
7.000000,1.400000,885.000000,-14.959656
7.000000,1.400000,890.000000,9.630942
7.000000,1.400000,895.000000,29.973112
7.000000,1.400000,900.000000,46.149702
7.000000,1.400000,905.000000,58.188585
7.000000,1.400000,910.000000,66.181209
7.000000,1.400000,915.000000,70.185217
7.000000,1.400000,920.000000,70.201344
7.000000,1.400000,925.000000,66.239443
7.000000,1.400000,930.000000,58.311935
7.000000,1.400000,935.000000,46.385594
7.000000,1.400000,940.000000,30.393346
7.000000,1.400000,945.000000,10.292761
7.000000,1.400000,950.000000,-14.006558
7.500000,0.400000,800.000000,-294.349766
7.500000,0.400000,805.000000,-226.637971
7.500000,0.400000,810.000000,-165.161365
7.500000,0.400000,815.000000,-109.496036
7.500000,0.400000,820.000000,-59.254952
7.500000,0.400000,825.000000,-14.087587
7.500000,0.400000,830.000000,26.325209
7.500000,0.400000,835.000000,62.273351
7.500000,0.400000,840.000000,94.017712
7.500000,0.400000,845.000000,121.795919
7.500000,0.400000,850.000000,145.820452
7.500000,0.400000,855.000000,166.278799
7.500000,0.400000,860.000000,183.339268
7.500000,0.400000,865.000000,197.149685
7.500000,0.400000,870.000000,207.825111
7.500000,0.400000,875.000000,215.505779
7.500000,0.400000,880.000000,220.248886
7.500000,0.400000,885.000000,222.136126
7.500000,0.400000,890.000000,221.188588
7.500000,0.400000,895.000000,217.532337
7.500000,0.400000,900.000000,211.112567
7.500000,0.400000,905.000000,201.943129
7.500000,0.400000,910.000000,190.020141
7.500000,0.400000,915.000000,175.314380
7.500000,0.400000,920.000000,157.748775
7.500000,0.400000,925.000000,137.345952
7.500000,0.400000,930.000000,113.955281
7.500000,0.400000,935.000000,87.506607
7.500000,0.400000,940.000000,57.870934
7.500000,0.400000,945.000000,24.967624
7.500000,0.400000,950.000000,-11.339367
7.500000,0.500000,800.000000,-447.145718
7.500000,0.500000,805.000000,-368.758235
7.500000,0.500000,810.000000,-297.287286
7.500000,0.500000,815.000000,-232.263743
7.500000,0.500000,820.000000,-173.258421
7.500000,0.500000,825.000000,-119.884998
7.500000,0.500000,830.000000,-71.787885
7.500000,0.500000,835.000000,-28.648708
7.500000,0.500000,840.000000,9.824090
7.500000,0.500000,845.000000,43.892941
7.500000,0.500000,850.000000,73.794118
7.500000,0.500000,855.000000,99.740268
7.500000,0.500000,860.000000,121.920402
7.500000,0.500000,865.000000,140.489488
7.500000,0.500000,870.000000,155.628587
7.500000,0.500000,875.000000,167.433684
7.500000,0.500000,880.000000,176.021622
7.500000,0.500000,885.000000,181.443706
7.500000,0.500000,890.000000,183.839074
7.500000,0.500000,895.000000,183.227971
7.500000,0.500000,900.000000,179.644159
7.500000,0.500000,905.000000,173.128057
7.500000,0.500000,910.000000,163.642116
7.500000,0.500000,915.000000,151.152303
7.500000,0.500000,920.000000,135.688648
7.500000,0.500000,925.000000,117.204900
7.500000,0.500000,930.000000,95.571235
7.500000,0.500000,935.000000,70.748013
7.500000,0.500000,940.000000,42.609387
7.500000,0.500000,945.000000,11.084098
7.500000,0.500000,950.000000,-23.980655
7.500000,0.600000,800.000000,-588.296605
7.500000,0.600000,805.000000,-500.319020
7.500000,0.600000,810.000000,-419.863274
7.500000,0.600000,815.000000,-346.418486
7.500000,0.600000,820.000000,-279.516609
7.500000,0.600000,825.000000,-218.738317
7.500000,0.600000,830.000000,-163.695060
7.500000,0.600000,835.000000,-114.042282
7.500000,0.600000,840.000000,-69.461733
7.500000,0.600000,845.000000,-29.667409
7.500000,0.600000,850.000000,5.598701
7.500000,0.600000,855.000000,36.568762
7.500000,0.600000,860.000000,63.450715
7.500000,0.600000,865.000000,86.424681
7.500000,0.600000,870.000000,105.668561
7.500000,0.600000,875.000000,121.309695
7.500000,0.600000,880.000000,133.436399
7.500000,0.600000,885.000000,142.265239
7.500000,0.600000,890.000000,147.763321
7.500000,0.600000,895.000000,150.008717
7.500000,0.600000,900.000000,149.134799
7.500000,0.600000,905.000000,145.097501
7.500000,0.600000,910.000000,137.918610
7.500000,0.600000,915.000000,127.601568
7.500000,0.600000,920.000000,114.124959
7.500000,0.600000,925.000000,97.419160
7.500000,0.600000,930.000000,77.515650
7.500000,0.600000,935.000000,54.268419
7.500000,0.600000,940.000000,27.574565
7.500000,0.600000,945.000000,-2.589509
7.500000,0.600000,950.000000,-36.419509
7.500000,0.700000,800.000000,-720.117808
7.500000,0.700000,805.000000,-623.373774
7.500000,0.700000,810.000000,-534.702154
7.500000,0.700000,815.000000,-453.552968
7.500000,0.700000,820.000000,-379.421769
7.500000,0.700000,825.000000,-311.858346
7.500000,0.700000,830.000000,-250.443335
7.500000,0.700000,835.000000,-194.807817
7.500000,0.700000,840.000000,-144.608769
7.500000,0.700000,845.000000,-99.538447
7.500000,0.700000,850.000000,-59.318937
7.500000,0.700000,855.000000,-23.700376
7.500000,0.700000,860.000000,7.542225
7.500000,0.700000,865.000000,34.593936
7.500000,0.700000,870.000000,57.676862
7.500000,0.700000,875.000000,76.905612
7.500000,0.700000,880.000000,92.425423
7.500000,0.700000,885.000000,104.352430
7.500000,0.700000,890.000000,112.783883
7.500000,0.700000,895.000000,117.791495
7.500000,0.700000,900.000000,119.433345
7.500000,0.700000,905.000000,117.768283
7.500000,0.700000,910.000000,112.791285
7.500000,0.700000,915.000000,104.534560
7.500000,0.700000,920.000000,92.935917
7.500000,0.700000,925.000000,78.030479
7.500000,0.700000,930.000000,59.774566
7.500000,0.700000,935.000000,38.043185
7.500000,0.700000,940.000000,12.779431
7.500000,0.700000,945.000000,-16.104210
7.500000,0.700000,950.000000,-48.752041
7.500000,0.800000,800.000000,-844.246074
7.500000,0.800000,805.000000,-739.385817
7.500000,0.800000,810.000000,-643.106842
7.500000,0.800000,815.000000,-554.822238
7.500000,0.800000,820.000000,-473.993148
7.500000,0.800000,825.000000,-400.140152
7.500000,0.800000,830.000000,-332.814748
7.500000,0.800000,835.000000,-271.625005
7.500000,0.800000,840.000000,-216.204544
7.500000,0.800000,845.000000,-166.225189
7.500000,0.800000,850.000000,-121.390395
7.500000,0.800000,855.000000,-81.433844
7.500000,0.800000,860.000000,-46.115242
7.500000,0.800000,865.000000,-15.219594
7.500000,0.800000,870.000000,11.445482
7.500000,0.800000,875.000000,34.044511
7.500000,0.800000,880.000000,52.727932
7.500000,0.800000,885.000000,67.608141
7.500000,0.800000,890.000000,78.814898
7.500000,0.800000,895.000000,86.434283
7.500000,0.800000,900.000000,90.499027
7.500000,0.800000,905.000000,91.103105
7.500000,0.800000,910.000000,88.213260
7.500000,0.800000,915.000000,81.945343
7.500000,0.800000,920.000000,72.218437
7.500000,0.800000,925.000000,59.021760
7.500000,0.800000,930.000000,42.316794
7.500000,0.800000,935.000000,22.059794
7.500000,0.800000,940.000000,-1.830281
7.500000,0.800000,945.000000,-29.445654
7.500000,0.800000,950.000000,-60.896169
7.500000,0.900000,800.000000,-961.889102
7.500000,0.900000,805.000000,-849.441573
7.500000,0.900000,810.000000,-746.051061
7.500000,0.900000,815.000000,-651.095568
7.500000,0.900000,820.000000,-564.003501
7.500000,0.900000,825.000000,-484.267631
7.500000,0.900000,830.000000,-411.411697
7.500000,0.900000,835.000000,-345.021852
7.500000,0.900000,840.000000,-284.709477
7.500000,0.900000,845.000000,-230.126973
7.500000,0.900000,850.000000,-180.960126
7.500000,0.900000,855.000000,-136.927069
7.500000,0.900000,860.000000,-97.773186
7.500000,0.900000,865.000000,-63.286137
7.500000,0.900000,870.000000,-33.210553
7.500000,0.900000,875.000000,-7.420227
7.500000,0.900000,880.000000,14.218187
7.500000,0.900000,885.000000,31.963691
7.500000,0.900000,890.000000,45.797776
7.500000,0.900000,895.000000,55.889121
7.500000,0.900000,900.000000,62.275307
7.500000,0.900000,905.000000,65.040298
7.500000,0.900000,910.000000,64.220860
7.500000,0.900000,915.000000,59.816584
7.500000,0.900000,920.000000,51.828488
7.500000,0.900000,925.000000,40.282630
7.500000,0.900000,930.000000,25.151283
7.500000,0.900000,935.000000,6.318649
7.500000,0.900000,940.000000,-16.264324
7.500000,0.900000,945.000000,-42.619940
7.500000,0.900000,950.000000,-72.945646
7.500000,1.000000,800.000000,-1073.968221
7.500000,1.000000,805.000000,-954.373913
7.500000,1.000000,810.000000,-844.285212
7.500000,1.000000,815.000000,-743.046619
7.500000,1.000000,820.000000,-650.055260
7.500000,1.000000,825.000000,-564.777299
7.500000,1.000000,830.000000,-486.709902
7.500000,1.000000,835.000000,-415.418223
7.500000,1.000000,840.000000,-350.492341
7.500000,1.000000,845.000000,-291.566054
7.500000,1.000000,850.000000,-238.308247
7.500000,1.000000,855.000000,-190.422211
7.500000,1.000000,860.000000,-147.639701
7.500000,1.000000,865.000000,-109.716687
7.500000,1.000000,870.000000,-76.440706
7.500000,1.000000,875.000000,-47.627384
7.500000,1.000000,880.000000,-23.090972
7.500000,1.000000,885.000000,-2.704788
7.500000,1.000000,890.000000,13.620555
7.500000,1.000000,895.000000,26.070353
7.500000,1.000000,900.000000,34.685943
7.500000,1.000000,905.000000,39.560131
7.500000,1.000000,910.000000,40.695428
7.500000,1.000000,915.000000,38.125260
7.500000,1.000000,920.000000,31.869588
7.500000,1.000000,925.000000,21.919679
7.500000,1.000000,930.000000,8.239987
7.500000,1.000000,935.000000,-9.189060
7.500000,1.000000,940.000000,-30.459855
7.500000,1.000000,945.000000,-55.626700
7.500000,1.000000,950.000000,-84.838023
7.500000,1.100000,800.000000,-1181.205295
7.500000,1.100000,805.000000,-1054.837998
7.500000,1.100000,810.000000,-938.411672
7.500000,1.100000,815.000000,-831.210023
7.500000,1.100000,820.000000,-732.628868
7.500000,1.100000,825.000000,-642.099261
7.500000,1.100000,830.000000,-559.092826
7.500000,1.100000,835.000000,-483.154525
7.500000,1.100000,840.000000,-413.853934
7.500000,1.100000,845.000000,-350.806952
7.500000,1.100000,850.000000,-293.666201
7.500000,1.100000,855.000000,-242.120711
7.500000,1.100000,860.000000,-195.889162
7.500000,1.100000,865.000000,-154.722347
7.500000,1.100000,870.000000,-118.374224
7.500000,1.100000,875.000000,-86.666227
7.500000,1.100000,880.000000,-59.430376
7.500000,1.100000,885.000000,-36.465452
7.500000,1.100000,890.000000,-17.687553
7.500000,1.100000,895.000000,-2.974202
7.500000,1.100000,900.000000,7.777781
7.500000,1.100000,905.000000,14.626009
7.500000,1.100000,910.000000,17.597735
7.500000,1.100000,915.000000,16.792696
7.500000,1.100000,920.000000,12.215802
7.500000,1.100000,925.000000,3.813855
7.500000,1.100000,930.000000,-8.409650
7.500000,1.100000,935.000000,-24.493313
7.500000,1.100000,940.000000,-44.495078
7.500000,1.100000,945.000000,-68.490961
7.500000,1.100000,950.000000,-96.600106
7.500000,1.200000,800.000000,-1284.178409
7.500000,1.200000,805.000000,-1151.360225
7.500000,1.200000,810.000000,-1028.890232
7.500000,1.200000,815.000000,-916.018518
7.500000,1.200000,820.000000,-812.114800
7.500000,1.200000,825.000000,-716.584605
7.500000,1.200000,830.000000,-628.874941
7.500000,1.200000,835.000000,-548.511285
7.500000,1.200000,840.000000,-475.043426
7.500000,1.200000,845.000000,-408.069972
7.500000,1.200000,850.000000,-347.227837
7.500000,1.200000,855.000000,-292.192280
7.500000,1.200000,860.000000,-242.669366
7.500000,1.200000,865.000000,-198.411788
7.500000,1.200000,870.000000,-159.138649
7.500000,1.200000,875.000000,-124.648016
7.500000,1.200000,880.000000,-94.790049
7.500000,1.200000,885.000000,-69.385091
7.500000,1.200000,890.000000,-48.296694
7.500000,1.200000,895.000000,-31.392544
7.500000,1.200000,900.000000,-18.630242
7.500000,1.200000,905.000000,-9.820695
7.500000,1.200000,910.000000,-4.989509
7.500000,1.200000,915.000000,-4.089321
7.500000,1.200000,920.000000,-7.090573
7.500000,1.200000,925.000000,-13.989048
7.500000,1.200000,930.000000,-24.815042
7.500000,1.200000,935.000000,-39.582620
7.500000,1.200000,940.000000,-58.353356
7.500000,1.200000,945.000000,-81.200129
7.500000,1.200000,950.000000,-108.206156
7.500000,1.300000,800.000000,-1383.359029
7.500000,1.300000,805.000000,-1244.383795
7.500000,1.300000,810.000000,-1116.121601
7.500000,1.300000,815.000000,-997.828228
7.500000,1.300000,820.000000,-888.844550
7.500000,1.300000,825.000000,-788.524343
7.500000,1.300000,830.000000,-696.317942
7.500000,1.300000,835.000000,-611.722939
7.500000,1.300000,840.000000,-534.269973
7.500000,1.300000,845.000000,-463.540908
7.500000,1.300000,850.000000,-399.157439
7.500000,1.300000,855.000000,-340.781480
7.500000,1.300000,860.000000,-288.106883
7.500000,1.300000,865.000000,-240.850433
7.500000,1.300000,870.000000,-198.772324
7.500000,1.300000,875.000000,-161.651600
7.500000,1.300000,880.000000,-129.292765
7.500000,1.300000,885.000000,-101.567520
7.500000,1.300000,890.000000,-78.245006
7.500000,1.300000,895.000000,-59.201364
7.500000,1.300000,900.000000,-44.418439
7.500000,1.300000,905.000000,-33.774106
7.500000,1.300000,910.000000,-27.195044
7.500000,1.300000,915.000000,-24.676728
7.500000,1.300000,920.000000,-26.123783
7.500000,1.300000,925.000000,-31.564813
7.500000,1.300000,930.000000,-40.987057
7.500000,1.300000,935.000000,-54.472019
7.500000,1.300000,940.000000,-72.034137
7.500000,1.300000,945.000000,-93.763201
7.500000,1.300000,950.000000,-119.749936
7.500000,1.400000,800.000000,-1479.137654
7.500000,1.400000,805.000000,-1334.241647
7.500000,1.400000,810.000000,-1200.432154
7.500000,1.400000,815.000000,-1076.936400
7.500000,1.400000,820.000000,-963.070757
7.500000,1.400000,825.000000,-858.162893
7.500000,1.400000,830.000000,-761.642377
7.500000,1.400000,835.000000,-672.987783
7.500000,1.400000,840.000000,-591.711176
7.500000,1.400000,845.000000,-517.378170
7.500000,1.400000,850.000000,-449.595679
7.500000,1.400000,855.000000,-388.012656
7.500000,1.400000,860.000000,-332.311087
7.500000,1.400000,865.000000,-282.196606
7.500000,1.400000,870.000000,-237.419224
7.500000,1.400000,875.000000,-197.754088
7.500000,1.400000,880.000000,-162.976802
7.500000,1.400000,885.000000,-132.934037
7.500000,1.400000,890.000000,-107.469134
7.500000,1.400000,895.000000,-86.450026
7.500000,1.400000,900.000000,-69.751991
7.500000,1.400000,905.000000,-57.287941
7.500000,1.400000,910.000000,-49.003824
7.500000,1.400000,915.000000,-44.860135
7.500000,1.400000,920.000000,-44.790676
7.500000,1.400000,925.000000,-48.821636
7.500000,1.400000,930.000000,-56.928026
7.500000,1.400000,935.000000,-69.168607
7.500000,1.400000,940.000000,-85.590151
7.500000,1.400000,945.000000,-106.180286
7.500000,1.400000,950.000000,-131.121162
8.000000,0.400000,800.000000,-417.069774
8.000000,0.400000,805.000000,-347.265815
8.000000,0.400000,810.000000,-283.920655
8.000000,0.400000,815.000000,-226.593051
8.000000,0.400000,820.000000,-174.878743
8.000000,0.400000,825.000000,-128.412392
8.000000,0.400000,830.000000,-86.862299
8.000000,0.400000,835.000000,-49.924734
8.000000,0.400000,840.000000,-17.326062
8.000000,0.400000,845.000000,11.179770
8.000000,0.400000,850.000000,35.815043
8.000000,0.400000,855.000000,56.777272
8.000000,0.400000,860.000000,74.241743
8.000000,0.400000,865.000000,88.326697
8.000000,0.400000,870.000000,99.271842
8.000000,0.400000,875.000000,107.083460
8.000000,0.400000,880.000000,111.856746
8.000000,0.400000,885.000000,113.764416
8.000000,0.400000,890.000000,112.761283
8.000000,0.400000,895.000000,108.930641
8.000000,0.400000,900.000000,102.286906
8.000000,0.400000,905.000000,92.839717
8.000000,0.400000,910.000000,80.560898
8.000000,0.400000,915.000000,65.437695
8.000000,0.400000,920.000000,47.418754
8.000000,0.400000,925.000000,26.448288
8.000000,0.400000,930.000000,2.437650
8.000000,0.400000,935.000000,-24.706823
8.000000,0.400000,940.000000,-55.080590
8.000000,0.400000,945.000000,-88.850513
8.000000,0.400000,950.000000,-126.079954
8.000000,0.500000,800.000000,-574.624464
8.000000,0.500000,805.000000,-493.739970
8.000000,0.500000,810.000000,-420.023759
8.000000,0.500000,815.000000,-352.987914
8.000000,0.500000,820.000000,-292.184639
8.000000,0.500000,825.000000,-237.210317
8.000000,0.500000,830.000000,-187.699285
8.000000,0.500000,835.000000,-143.314504
8.000000,0.500000,840.000000,-103.751806
8.000000,0.500000,845.000000,-68.740099
8.000000,0.500000,850.000000,-38.029079
8.000000,0.500000,855.000000,-11.398260
8.000000,0.500000,860.000000,11.350564
8.000000,0.500000,865.000000,30.388575
8.000000,0.500000,870.000000,45.881598
8.000000,0.500000,875.000000,57.914076
8.000000,0.500000,880.000000,66.675092
8.000000,0.500000,885.000000,72.245232
8.000000,0.500000,890.000000,74.649120
8.000000,0.500000,895.000000,73.974337
8.000000,0.500000,900.000000,70.244414
8.000000,0.500000,905.000000,63.480213
8.000000,0.500000,910.000000,53.672919
8.000000,0.500000,915.000000,40.870048
8.000000,0.500000,920.000000,24.978101
8.000000,0.500000,925.000000,5.949710
8.000000,0.500000,930.000000,-16.254350
8.000000,0.500000,935.000000,-41.735149
8.000000,0.500000,940.000000,-70.587588
8.000000,0.500000,945.000000,-102.953512
8.000000,0.500000,950.000000,-138.890731
8.000000,0.600000,800.000000,-720.284033
8.000000,0.600000,805.000000,-629.443046
8.000000,0.600000,810.000000,-546.399964
8.000000,0.600000,815.000000,-470.623800
8.000000,0.600000,820.000000,-401.626663
8.000000,0.600000,825.000000,-338.973280
8.000000,0.600000,830.000000,-282.256718
8.000000,0.600000,835.000000,-231.120078
8.000000,0.600000,840.000000,-185.230191
8.000000,0.600000,845.000000,-144.288358
8.000000,0.600000,850.000000,-108.024814
8.000000,0.600000,855.000000,-76.197665
8.000000,0.600000,860.000000,-48.588919
8.000000,0.600000,865.000000,-25.005784
8.000000,0.600000,870.000000,-5.275857
8.000000,0.600000,875.000000,10.748288
8.000000,0.600000,880.000000,23.197394
8.000000,0.600000,885.000000,32.176222
8.000000,0.600000,890.000000,37.776044
8.000000,0.600000,895.000000,40.061656
8.000000,0.600000,900.000000,39.083271
8.000000,0.600000,905.000000,34.884269
8.000000,0.600000,910.000000,27.480540
8.000000,0.600000,915.000000,16.850669
8.000000,0.600000,920.000000,2.979670
8.000000,0.600000,925.000000,-14.161018
8.000000,0.600000,930.000000,-34.626434
8.000000,0.600000,935.000000,-58.507464
8.000000,0.600000,940.000000,-85.900337
8.000000,0.600000,945.000000,-116.846264
8.000000,0.600000,950.000000,-151.550130
8.000000,0.700000,800.000000,-856.394225
8.000000,0.700000,805.000000,-756.450789
8.000000,0.700000,810.000000,-664.877470
8.000000,0.700000,815.000000,-581.102948
8.000000,0.700000,820.000000,-504.601785
8.000000,0.700000,825.000000,-434.906851
8.000000,0.700000,830.000000,-371.579422
8.000000,0.700000,835.000000,-314.237442
8.000000,0.700000,840.000000,-262.522147
8.000000,0.700000,845.000000,-216.112348
8.000000,0.700000,850.000000,-174.717650
8.000000,0.700000,855.000000,-138.077774
8.000000,0.700000,860.000000,-105.956991
8.000000,0.700000,865.000000,-78.161915
8.000000,0.700000,870.000000,-54.459705
8.000000,0.700000,875.000000,-34.731285
8.000000,0.700000,880.000000,-18.857719
8.000000,0.700000,885.000000,-6.607374
8.000000,0.700000,890.000000,2.009729
8.000000,0.700000,895.000000,7.111788
8.000000,0.700000,900.000000,8.751661
8.000000,0.700000,905.000000,6.992041
8.000000,0.700000,910.000000,1.856741
8.000000,0.700000,915.000000,-6.672902
8.000000,0.700000,920.000000,-18.576359
8.000000,0.700000,925.000000,-33.903594
8.000000,0.700000,930.000000,-52.694486
8.000000,0.700000,935.000000,-75.020064
8.000000,0.700000,940.000000,-100.951732
8.000000,0.700000,945.000000,-130.616102
8.000000,0.700000,950.000000,-164.068558
8.000000,0.800000,800.000000,-984.618241
8.000000,0.800000,805.000000,-876.247180
8.000000,0.800000,810.000000,-776.774767
8.000000,0.800000,815.000000,-685.591568
8.000000,0.800000,820.000000,-602.136647
8.000000,0.800000,825.000000,-525.912745
8.000000,0.800000,830.000000,-456.451087
8.000000,0.800000,835.000000,-393.345879
8.000000,0.800000,840.000000,-336.214256
8.000000,0.800000,845.000000,-284.713923
8.000000,0.800000,850.000000,-238.535225
8.000000,0.800000,855.000000,-197.400839
8.000000,0.800000,860.000000,-161.060292
8.000000,0.800000,865.000000,-129.284918
8.000000,0.800000,870.000000,-101.893762
8.000000,0.800000,875.000000,-78.668543
8.000000,0.800000,880.000000,-59.499181
8.000000,0.800000,885.000000,-44.217152
8.000000,0.800000,890.000000,-32.745556
8.000000,0.800000,895.000000,-24.956931
8.000000,0.800000,900.000000,-20.811110
8.000000,0.800000,905.000000,-20.239413
8.000000,0.800000,910.000000,-23.240826
8.000000,0.800000,915.000000,-29.713504
8.000000,0.800000,920.000000,-39.731180
8.000000,0.800000,925.000000,-53.308952
8.000000,0.800000,930.000000,-70.480015
8.000000,0.800000,935.000000,-91.289404
8.000000,0.800000,940.000000,-115.815668
8.000000,0.800000,945.000000,-144.161270
8.000000,0.800000,950.000000,-176.462844
8.000000,0.900000,800.000000,-1106.186126
8.000000,0.900000,805.000000,-989.936723
8.000000,0.900000,810.000000,-883.079847
8.000000,0.900000,815.000000,-784.969834
8.000000,0.900000,820.000000,-695.011967
8.000000,0.900000,825.000000,-612.680298
8.000000,0.900000,830.000000,-537.477421
8.000000,0.900000,835.000000,-468.974941
8.000000,0.900000,840.000000,-406.767054
8.000000,0.900000,845.000000,-350.491427
8.000000,0.900000,850.000000,-299.820163
8.000000,0.900000,855.000000,-254.459864
8.000000,0.900000,860.000000,-214.145234
8.000000,0.900000,865.000000,-178.635010
8.000000,0.900000,870.000000,-147.719771
8.000000,0.900000,875.000000,-121.214547
8.000000,0.900000,880.000000,-98.963747
8.000000,0.900000,885.000000,-80.757663
8.000000,0.900000,890.000000,-66.543472
8.000000,0.900000,895.000000,-56.212509
8.000000,0.900000,900.000000,-49.674550
8.000000,0.900000,905.000000,-46.875814
8.000000,0.900000,910.000000,-47.782009
8.000000,0.900000,915.000000,-52.298043
8.000000,0.900000,920.000000,-60.504424
8.000000,0.900000,925.000000,-72.388378
8.000000,0.900000,930.000000,-87.983149
8.000000,0.900000,935.000000,-107.325928
8.000000,0.900000,940.000000,-130.495459
8.000000,0.900000,945.000000,-157.575799
8.000000,0.900000,950.000000,-188.671033
8.000000,1.000000,800.000000,-1222.037964
8.000000,1.000000,805.000000,-1098.367821
8.000000,1.000000,810.000000,-984.555726
8.000000,1.000000,815.000000,-879.921416
8.000000,1.000000,820.000000,-783.837875
8.000000,1.000000,825.000000,-695.751701
8.000000,1.000000,830.000000,-615.138072
8.000000,1.000000,835.000000,-541.546939
8.000000,1.000000,840.000000,-474.550531
8.000000,1.000000,845.000000,-413.767330
8.000000,1.000000,850.000000,-358.852004
8.000000,1.000000,855.000000,-309.495835
8.000000,1.000000,860.000000,-265.419440
8.000000,1.000000,865.000000,-226.385316
8.000000,1.000000,870.000000,-192.129948
8.000000,1.000000,875.000000,-162.462442
8.000000,1.000000,880.000000,-137.237309
8.000000,1.000000,885.000000,-116.288322
8.000000,1.000000,890.000000,-99.480165
8.000000,1.000000,895.000000,-86.717714
8.000000,1.000000,900.000000,-77.877012
8.000000,1.000000,905.000000,-72.926312
8.000000,1.000000,910.000000,-71.830499
8.000000,1.000000,915.000000,-74.465504
8.000000,1.000000,920.000000,-80.947578
8.000000,1.000000,925.000000,-91.158002
8.000000,1.000000,930.000000,-105.222798
8.000000,1.000000,935.000000,-123.139355
8.000000,1.000000,940.000000,-144.975153
8.000000,1.000000,945.000000,-170.828370
8.000000,1.000000,950.000000,-200.780224
8.000000,1.100000,800.000000,-1332.911403
8.000000,1.100000,805.000000,-1202.208926
8.000000,1.100000,810.000000,-1081.817266
8.000000,1.100000,815.000000,-970.989911
8.000000,1.100000,820.000000,-869.101939
8.000000,1.100000,825.000000,-775.562547
8.000000,1.100000,830.000000,-689.820560
8.000000,1.100000,835.000000,-611.405098
8.000000,1.100000,840.000000,-539.867248
8.000000,1.100000,845.000000,-474.807036
8.000000,1.100000,850.000000,-415.862362
8.000000,1.100000,855.000000,-362.709795
8.000000,1.100000,860.000000,-315.056458
8.000000,1.100000,865.000000,-272.631594
8.000000,1.100000,870.000000,-235.220776
8.000000,1.100000,875.000000,-202.578035
8.000000,1.100000,880.000000,-174.519404
8.000000,1.100000,885.000000,-150.932449
8.000000,1.100000,890.000000,-131.616835
8.000000,1.100000,895.000000,-116.536474
8.000000,1.100000,900.000000,-105.504843
8.000000,1.100000,905.000000,-98.457510
8.000000,1.100000,910.000000,-95.414830
8.000000,1.100000,915.000000,-96.239796
8.000000,1.100000,920.000000,-100.979974
8.000000,1.100000,925.000000,-109.632331
8.000000,1.100000,930.000000,-122.202321
8.000000,1.100000,935.000000,-138.740038
8.000000,1.100000,940.000000,-159.279759
8.000000,1.100000,945.000000,-183.926967
8.000000,1.100000,950.000000,-212.778933
8.000000,1.200000,800.000000,-1439.397891
8.000000,1.200000,805.000000,-1301.997828
8.000000,1.200000,810.000000,-1175.330955
8.000000,1.200000,815.000000,-1058.616006
8.000000,1.200000,820.000000,-951.201093
8.000000,1.200000,825.000000,-852.469052
8.000000,1.200000,830.000000,-761.843299
8.000000,1.200000,835.000000,-678.832850
8.000000,1.200000,840.000000,-602.968384
8.000000,1.200000,845.000000,-533.832097
8.000000,1.200000,850.000000,-471.045694
8.000000,1.200000,855.000000,-414.271547
8.000000,1.200000,860.000000,-363.203765
8.000000,1.200000,865.000000,-317.565756
8.000000,1.200000,870.000000,-277.092601
8.000000,1.200000,875.000000,-241.590639
8.000000,1.200000,880.000000,-210.853380
8.000000,1.200000,885.000000,-184.704213
8.000000,1.200000,890.000000,-163.006575
8.000000,1.200000,895.000000,-145.636502
8.000000,1.200000,900.000000,-132.518989
8.000000,1.200000,905.000000,-123.467096
8.000000,1.200000,910.000000,-118.560883
8.000000,1.200000,915.000000,-117.626966
8.000000,1.200000,920.000000,-120.752081
8.000000,1.200000,925.000000,-127.832064
8.000000,1.200000,930.000000,-138.956981
8.000000,1.200000,935.000000,-154.125594
8.000000,1.200000,940.000000,-173.440798
8.000000,1.200000,945.000000,-196.870026
8.000000,1.200000,950.000000,-224.631038
8.000000,1.300000,800.000000,-1541.980287
8.000000,1.300000,805.000000,-1398.189118
8.000000,1.300000,810.000000,-1265.507291
8.000000,1.300000,815.000000,-1143.162846
8.000000,1.300000,820.000000,-1030.474079
8.000000,1.300000,825.000000,-926.766937
8.000000,1.300000,830.000000,-831.471708
8.000000,1.300000,835.000000,-744.067482
8.000000,1.300000,840.000000,-664.065179
8.000000,1.300000,845.000000,-591.029729
8.000000,1.300000,850.000000,-524.567146
8.000000,1.300000,855.000000,-464.326046
8.000000,1.300000,860.000000,-409.987945
8.000000,1.300000,865.000000,-361.279685
8.000000,1.300000,870.000000,-317.878412
8.000000,1.300000,875.000000,-279.671641
8.000000,1.300000,880.000000,-246.309103
8.000000,1.300000,885.000000,-217.703120
8.000000,1.300000,890.000000,-193.697741
8.000000,1.300000,895.000000,-174.165304
8.000000,1.300000,900.000000,-158.951574
8.000000,1.300000,905.000000,-148.012481
8.000000,1.300000,910.000000,-141.254863
8.000000,1.300000,915.000000,-138.653542
8.000000,1.300000,920.000000,-140.178127
8.000000,1.300000,925.000000,-145.780095
8.000000,1.300000,930.000000,-155.470822
8.000000,1.300000,935.000000,-169.330295
8.000000,1.300000,940.000000,-187.403277
8.000000,1.300000,945.000000,-209.684969
8.000000,1.300000,950.000000,-236.362968
8.000000,1.400000,800.000000,-1641.058881
8.000000,1.400000,805.000000,-1491.121125
8.000000,1.400000,810.000000,-1352.679960
8.000000,1.400000,815.000000,-1224.933893
8.000000,1.400000,820.000000,-1107.175885
8.000000,1.400000,825.000000,-998.704906
8.000000,1.400000,830.000000,-898.929796
8.000000,1.400000,835.000000,-807.310008
8.000000,1.400000,840.000000,-723.337298
8.000000,1.400000,845.000000,-646.559833
8.000000,1.400000,850.000000,-576.568389
8.000000,1.400000,855.000000,-512.998219
8.000000,1.400000,860.000000,-455.518607
8.000000,1.400000,865.000000,-403.818922
8.000000,1.400000,870.000000,-357.645472
8.000000,1.400000,875.000000,-316.752703
8.000000,1.400000,880.000000,-280.914404
8.000000,1.400000,885.000000,-249.972368
8.000000,1.400000,890.000000,-223.743087
8.000000,1.400000,895.000000,-202.092810
8.000000,1.400000,900.000000,-184.912497
8.000000,1.400000,905.000000,-172.102845
8.000000,1.400000,910.000000,-163.592271
8.000000,1.400000,915.000000,-159.337171
8.000000,1.400000,920.000000,-159.270393
8.000000,1.400000,925.000000,-163.411420
8.000000,1.400000,930.000000,-171.763421
8.000000,1.400000,935.000000,-184.334641
8.000000,1.400000,940.000000,-201.178524
8.000000,1.400000,945.000000,-222.355651
8.000000,1.400000,950.000000,-247.978307
8.500000,0.400000,800.000000,-538.466225
8.500000,0.400000,805.000000,-466.679636
8.500000,0.400000,810.000000,-401.567727
8.500000,0.400000,815.000000,-342.672352
8.500000,0.400000,820.000000,-289.572435
8.500000,0.400000,825.000000,-241.888204
8.500000,0.400000,830.000000,-199.275761
8.500000,0.400000,835.000000,-161.417916
8.500000,0.400000,840.000000,-128.028611
8.500000,0.400000,845.000000,-98.853681
8.500000,0.400000,850.000000,-73.661363
8.500000,0.400000,855.000000,-52.244431
8.500000,0.400000,860.000000,-34.420918
8.500000,0.400000,865.000000,-20.065849
8.500000,0.400000,870.000000,-8.969505
8.500000,0.400000,875.000000,-1.017692
8.500000,0.400000,880.000000,3.822107
8.500000,0.400000,885.000000,5.651641
8.500000,0.400000,890.000000,4.525195
8.500000,0.400000,895.000000,0.551278
8.500000,0.400000,900.000000,-6.333060
8.500000,0.400000,905.000000,-16.087294
8.500000,0.400000,910.000000,-28.734849
8.500000,0.400000,915.000000,-44.283369
8.500000,0.400000,920.000000,-62.800293
8.500000,0.400000,925.000000,-84.344128
8.500000,0.400000,930.000000,-108.985849
8.500000,0.400000,935.000000,-136.826387
8.500000,0.400000,940.000000,-167.978663
8.500000,0.400000,945.000000,-202.567485
8.500000,0.400000,950.000000,-240.777071
8.500000,0.500000,800.000000,-700.551407
8.500000,0.500000,805.000000,-617.292778
8.500000,0.500000,810.000000,-541.445894
8.500000,0.500000,815.000000,-472.504528
8.500000,0.500000,820.000000,-410.002719
8.500000,0.500000,825.000000,-353.521179
8.500000,0.500000,830.000000,-302.680880
8.500000,0.500000,835.000000,-257.130134
8.500000,0.500000,840.000000,-216.551193
8.500000,0.500000,845.000000,-180.664899
8.500000,0.500000,850.000000,-149.206958
8.500000,0.500000,855.000000,-121.949430
8.500000,0.500000,860.000000,-98.685216
8.500000,0.500000,865.000000,-79.232383
8.500000,0.500000,870.000000,-63.432495
8.500000,0.500000,875.000000,-51.148547
8.500000,0.500000,880.000000,-42.250726
8.500000,0.500000,885.000000,-36.650143
8.500000,0.500000,890.000000,-34.262191
8.500000,0.500000,895.000000,-35.071818
8.500000,0.500000,900.000000,-38.949379
8.500000,0.500000,905.000000,-45.943946
8.500000,0.500000,910.000000,-56.041694
8.500000,0.500000,915.000000,-69.256278
8.500000,0.500000,920.000000,-85.631635
8.500000,0.500000,925.000000,-105.149171
8.500000,0.500000,930.000000,-127.961032
8.500000,0.500000,935.000000,-154.105768
8.500000,0.500000,940.000000,-183.731714
8.500000,0.500000,945.000000,-216.895694
8.500000,0.500000,950.000000,-253.766548
8.500000,0.600000,800.000000,-850.513290
8.500000,0.600000,805.000000,-756.943346
8.500000,0.600000,810.000000,-671.438565
8.500000,0.600000,815.000000,-593.448387
8.500000,0.600000,820.000000,-522.465570
8.500000,0.600000,825.000000,-458.039318
8.500000,0.600000,830.000000,-399.744739
8.500000,0.600000,835.000000,-347.212937
8.500000,0.600000,840.000000,-300.096186
8.500000,0.600000,845.000000,-258.083420
8.500000,0.600000,850.000000,-220.893432
8.500000,0.600000,855.000000,-188.274891
8.500000,0.600000,860.000000,-160.000053
8.500000,0.600000,865.000000,-135.867879
8.500000,0.600000,870.000000,-115.711115
8.500000,0.600000,875.000000,-99.348918
8.500000,0.600000,880.000000,-86.659777
8.500000,0.600000,885.000000,-77.555672
8.500000,0.600000,890.000000,-71.894076
8.500000,0.600000,895.000000,-69.603879
8.500000,0.600000,900.000000,-70.669604
8.500000,0.600000,905.000000,-75.051496
8.500000,0.600000,910.000000,-82.727934
8.500000,0.600000,915.000000,-93.712365
8.500000,0.600000,920.000000,-107.958875
8.500000,0.600000,925.000000,-125.612798
8.500000,0.600000,930.000000,-146.621625
8.500000,0.600000,935.000000,-171.135826
8.500000,0.600000,940.000000,-199.225804
8.500000,0.600000,945.000000,-230.998300
8.500000,0.600000,950.000000,-266.587346
8.500000,0.700000,800.000000,-990.723182
8.500000,0.700000,805.000000,-887.725118
8.500000,0.700000,810.000000,-793.385572
8.500000,0.700000,815.000000,-707.112462
8.500000,0.700000,820.000000,-628.359905
8.500000,0.700000,825.000000,-556.644309
8.500000,0.700000,830.000000,-491.508050
8.500000,0.700000,835.000000,-432.556304
8.500000,0.700000,840.000000,-379.414946
8.500000,0.700000,845.000000,-331.749678
8.500000,0.700000,850.000000,-289.257947
8.500000,0.700000,855.000000,-251.669353
8.500000,0.700000,860.000000,-218.737718
8.500000,0.700000,865.000000,-190.250425
8.500000,0.700000,870.000000,-166.009880
8.500000,0.700000,875.000000,-145.824649
8.500000,0.700000,880.000000,-129.605697
8.500000,0.700000,885.000000,-117.118420
8.500000,0.700000,890.000000,-108.387979
8.500000,0.700000,895.000000,-103.207942
8.500000,0.700000,900.000000,-101.592811
8.500000,0.700000,905.000000,-103.471586
8.500000,0.700000,910.000000,-108.841527
8.500000,0.700000,915.000000,-117.646574
8.500000,0.700000,920.000000,-129.898083
8.500000,0.700000,925.000000,-145.693319
8.500000,0.700000,930.000000,-164.979432
8.500000,0.700000,935.000000,-187.911464
8.500000,0.700000,940.000000,-214.533394
8.500000,0.700000,945.000000,-244.944154
8.500000,0.700000,950.000000,-279.286122
8.500000,0.800000,800.000000,-1122.867387
8.500000,0.800000,805.000000,-1011.139716
8.500000,0.800000,810.000000,-908.618270
8.500000,0.800000,815.000000,-814.671728
8.500000,0.800000,820.000000,-728.717664
8.500000,0.800000,825.000000,-650.241480
8.500000,0.800000,830.000000,-578.754623
8.500000,0.800000,835.000000,-513.837831
8.500000,0.800000,840.000000,-455.092151
8.500000,0.800000,845.000000,-402.161529
8.500000,0.800000,850.000000,-354.723532
8.500000,0.800000,855.000000,-312.490130
8.500000,0.800000,860.000000,-275.198206
8.500000,0.800000,865.000000,-242.614764
8.500000,0.800000,870.000000,-214.546404
8.500000,0.800000,875.000000,-190.763552
8.500000,0.800000,880.000000,-171.144512
8.500000,0.800000,885.000000,-155.540803
8.500000,0.800000,890.000000,-143.830121
8.500000,0.800000,895.000000,-135.935214
8.500000,0.800000,900.000000,-131.743489
8.500000,0.800000,905.000000,-131.229360
8.500000,0.800000,910.000000,-134.347365
8.500000,0.800000,915.000000,-141.080500
8.500000,0.800000,920.000000,-151.455279
8.500000,0.800000,925.000000,-165.436303
8.500000,0.800000,930.000000,-183.058432
8.500000,0.800000,935.000000,-204.442589
8.500000,0.800000,940.000000,-229.635745
8.500000,0.800000,945.000000,-258.736482
8.500000,0.800000,950.000000,-291.841614
8.500000,0.900000,800.000000,-1248.195872
8.500000,0.900000,805.000000,-1128.307505
8.500000,0.900000,810.000000,-1018.136911
8.500000,0.900000,815.000000,-917.015455
8.500000,0.900000,820.000000,-824.325925
8.500000,0.900000,825.000000,-739.524196
8.500000,0.900000,830.000000,-662.092250
8.500000,0.900000,835.000000,-591.587564
8.500000,0.900000,840.000000,-527.587577
8.500000,0.900000,845.000000,-469.715598
8.500000,0.900000,850.000000,-417.630391
8.500000,0.900000,855.000000,-371.027342
8.500000,0.900000,860.000000,-329.630765
8.500000,0.900000,865.000000,-293.184620
8.500000,0.900000,870.000000,-261.472776
8.500000,0.900000,875.000000,-234.311585
8.500000,0.900000,880.000000,-211.485106
8.500000,0.900000,885.000000,-192.886449
8.500000,0.900000,890.000000,-178.375791
8.500000,0.900000,895.000000,-167.850667
8.500000,0.900000,900.000000,-161.201565
8.500000,0.900000,905.000000,-158.393527
8.500000,0.900000,910.000000,-159.367842
8.500000,0.900000,915.000000,-164.106429
8.500000,0.900000,920.000000,-172.588628
8.500000,0.900000,925.000000,-184.825650
8.500000,0.900000,930.000000,-200.872236
8.500000,0.900000,935.000000,-220.758656
8.500000,0.900000,940.000000,-244.557306
8.500000,0.900000,945.000000,-272.352715
8.500000,0.900000,950.000000,-304.295902
8.500000,1.000000,800.000000,-1367.665662
8.500000,1.000000,805.000000,-1240.090748
8.500000,1.000000,810.000000,-1122.715602
8.500000,1.000000,815.000000,-1014.835933
8.500000,1.000000,820.000000,-915.801268
8.500000,1.000000,825.000000,-825.039210
8.500000,1.000000,830.000000,-742.003527
8.500000,1.000000,835.000000,-666.229410
8.500000,1.000000,840.000000,-597.271696
8.500000,1.000000,845.000000,-534.733947
8.500000,1.000000,850.000000,-478.256978
8.500000,1.000000,855.000000,-427.520384
8.500000,1.000000,860.000000,-382.233949
8.500000,1.000000,865.000000,-342.143661
8.500000,1.000000,870.000000,-306.971591
8.500000,1.000000,875.000000,-276.557845
8.500000,1.000000,880.000000,-250.701385
8.500000,1.000000,885.000000,-229.249642
8.500000,1.000000,890.000000,-212.087527
8.500000,1.000000,895.000000,-199.012346
8.500000,1.000000,900.000000,-190.004765
8.500000,1.000000,905.000000,-184.988934
8.500000,1.000000,910.000000,-183.905297
8.500000,1.000000,915.000000,-186.697136
8.500000,1.000000,920.000000,-193.377168
8.500000,1.000000,925.000000,-203.940807
8.500000,1.000000,930.000000,-218.413746
8.500000,1.000000,935.000000,-236.845237
8.500000,1.000000,940.000000,-259.311524
8.500000,1.000000,945.000000,-285.827497
8.500000,1.000000,950.000000,-316.571509
8.500000,1.100000,800.000000,-1482.028797
8.500000,1.100000,805.000000,-1347.169897
8.500000,1.100000,810.000000,-1222.968003
8.500000,1.100000,815.000000,-1108.684636
8.500000,1.100000,820.000000,-1003.637391
8.500000,1.100000,825.000000,-907.226712
8.500000,1.100000,830.000000,-818.879232
8.500000,1.100000,835.000000,-738.108707
8.500000,1.100000,840.000000,-664.448218
8.500000,1.100000,845.000000,-597.482339
8.500000,1.100000,850.000000,-536.834628
8.500000,1.100000,855.000000,-482.169533
8.500000,1.100000,860.000000,-433.182930
8.500000,1.100000,865.000000,-389.588911
8.500000,1.100000,870.000000,-351.151417
8.500000,1.100000,875.000000,-317.650059
8.500000,1.100000,880.000000,-288.882918
8.500000,1.100000,885.000000,-264.705479
8.500000,1.100000,890.000000,-244.927602
8.500000,1.100000,895.000000,-229.471056
8.500000,1.100000,900.000000,-218.194913
8.500000,1.100000,905.000000,-211.049120
8.500000,1.100000,910.000000,-207.966935
8.500000,1.100000,915.000000,-208.901445
8.500000,1.100000,920.000000,-213.841923
8.500000,1.100000,925.000000,-222.772806
8.500000,1.100000,930.000000,-235.719811
8.500000,1.100000,935.000000,-252.722976
8.500000,1.100000,940.000000,-273.864767
8.500000,1.100000,945.000000,-299.140819
8.500000,1.100000,950.000000,-328.766176
8.500000,1.200000,800.000000,-1591.888997
8.500000,1.200000,805.000000,-1450.093122
8.500000,1.200000,810.000000,-1319.403803
8.500000,1.200000,815.000000,-1199.009326
8.500000,1.200000,820.000000,-1088.236890
8.500000,1.200000,825.000000,-986.447315
8.500000,1.200000,830.000000,-893.041068
8.500000,1.200000,835.000000,-807.511209
8.500000,1.200000,840.000000,-729.369817
8.500000,1.200000,845.000000,-658.183122
8.500000,1.200000,850.000000,-593.558022
8.500000,1.200000,855.000000,-535.144352
8.500000,1.200000,860.000000,-482.624594
8.500000,1.200000,865.000000,-435.700448
8.500000,1.200000,870.000000,-394.121897
8.500000,1.200000,875.000000,-357.703346
8.500000,1.200000,880.000000,-326.106207
8.500000,1.200000,885.000000,-299.288912
8.500000,1.200000,890.000000,-277.049201
8.500000,1.200000,895.000000,-259.298107
8.500000,1.200000,900.000000,-245.809564
8.500000,1.200000,905.000000,-236.623382
8.500000,1.200000,910.000000,-231.633263
8.500000,1.200000,915.000000,-230.726521
8.500000,1.200000,920.000000,-233.965666
8.500000,1.200000,925.000000,-241.310641
8.500000,1.200000,930.000000,-252.773877
8.500000,1.200000,935.000000,-268.400400
8.500000,1.200000,940.000000,-288.215890
8.500000,1.200000,945.000000,-312.314972
8.500000,1.200000,950.000000,-340.816804
8.500000,1.300000,800.000000,-1697.739639
8.500000,1.300000,805.000000,-1549.309741
8.500000,1.300000,810.000000,-1412.405108
8.500000,1.300000,815.000000,-1286.179467
8.500000,1.300000,820.000000,-1169.933189
8.500000,1.300000,825.000000,-1063.000857
8.500000,1.300000,830.000000,-964.757636
8.500000,1.300000,835.000000,-874.676565
8.500000,1.300000,840.000000,-792.249384
8.500000,1.300000,845.000000,-717.024555
8.500000,1.300000,850.000000,-648.592834
8.500000,1.300000,855.000000,-586.589908
8.500000,1.300000,860.000000,-530.685298
8.500000,1.300000,865.000000,-480.579764
8.500000,1.300000,870.000000,-435.977551
8.500000,1.300000,875.000000,-396.673597
8.500000,1.300000,880.000000,-362.442254
8.500000,1.300000,885.000000,-333.101878
8.500000,1.300000,890.000000,-308.475844
8.500000,1.300000,895.000000,-288.443107
8.500000,1.300000,900.000000,-272.920190
8.500000,1.300000,905.000000,-261.702221
8.500000,1.300000,910.000000,-254.853961
8.500000,1.300000,915.000000,-252.200969
8.500000,1.300000,920.000000,-253.784169
8.500000,1.300000,925.000000,-259.588367
8.500000,1.300000,930.000000,-269.615840
8.500000,1.300000,935.000000,-283.880224
8.500000,1.300000,940.000000,-302.461604
8.500000,1.300000,945.000000,-325.358137
8.500000,1.300000,950.000000,-352.720048
8.500000,1.400000,800.000000,-1799.990093
8.500000,1.400000,805.000000,-1645.210298
8.500000,1.400000,810.000000,-1502.324754
8.500000,1.400000,815.000000,-1370.504151
8.500000,1.400000,820.000000,-1249.018815
8.500000,1.400000,825.000000,-1137.139832
8.500000,1.400000,830.000000,-1034.255954
8.500000,1.400000,835.000000,-939.808100
8.500000,1.400000,840.000000,-853.268278
8.500000,1.400000,845.000000,-774.167701
8.500000,1.400000,850.000000,-702.081446
8.500000,1.400000,855.000000,-636.631457
8.500000,1.400000,860.000000,-577.474671
8.500000,1.400000,865.000000,-524.285279
8.500000,1.400000,870.000000,-476.806566
8.500000,1.400000,875.000000,-434.805051
8.500000,1.400000,880.000000,-397.962753
8.500000,1.400000,885.000000,-366.165079
8.500000,1.400000,890.000000,-339.262290
8.500000,1.400000,895.000000,-317.052146
8.500000,1.400000,900.000000,-299.457056
8.500000,1.400000,905.000000,-286.337877
8.500000,1.400000,910.000000,-277.656768
8.500000,1.400000,915.000000,-273.318146
8.500000,1.400000,920.000000,-273.343841
8.500000,1.400000,925.000000,-277.608185
8.500000,1.400000,930.000000,-286.218214
8.500000,1.400000,935.000000,-299.169133
8.500000,1.400000,940.000000,-316.492352
8.500000,1.400000,945.000000,-338.253205
8.500000,1.400000,950.000000,-364.543571
9.000000,0.400000,800.000000,-658.674777
9.000000,0.400000,805.000000,-585.005286
9.000000,0.400000,810.000000,-518.219228
9.000000,0.400000,815.000000,-457.841950
9.000000,0.400000,820.000000,-403.435939
9.000000,0.400000,825.000000,-354.607336
9.000000,0.400000,830.000000,-311.000370
9.000000,0.400000,835.000000,-272.284722
9.000000,0.400000,840.000000,-238.162229
9.000000,0.400000,845.000000,-208.370907
9.000000,0.400000,850.000000,-182.669811
9.000000,0.400000,855.000000,-160.842304
9.000000,0.400000,860.000000,-142.700016
9.000000,0.400000,865.000000,-128.080443
9.000000,0.400000,870.000000,-116.832259
9.000000,0.400000,875.000000,-108.834476
9.000000,0.400000,880.000000,-103.990342
9.000000,0.400000,885.000000,-102.246440
9.000000,0.400000,890.000000,-103.450768
9.000000,0.400000,895.000000,-107.677539
9.000000,0.400000,900.000000,-114.789547
9.000000,0.400000,905.000000,-124.869826
9.000000,0.400000,910.000000,-137.886465
9.000000,0.400000,915.000000,-153.888264
9.000000,0.400000,920.000000,-172.913018
9.000000,0.400000,925.000000,-195.052077
9.000000,0.400000,930.000000,-220.306791
9.000000,0.400000,935.000000,-248.857385
9.000000,0.400000,940.000000,-280.793992
9.000000,0.400000,945.000000,-316.244107
9.000000,0.400000,950.000000,-355.369741
9.000000,0.500000,800.000000,-825.082460
9.000000,0.500000,805.000000,-739.561725
9.000000,0.500000,810.000000,-661.688573
9.000000,0.500000,815.000000,-590.938898
9.000000,0.500000,820.000000,-526.828985
9.000000,0.500000,825.000000,-468.924238
9.000000,0.500000,830.000000,-416.832602
9.000000,0.500000,835.000000,-370.188073
9.000000,0.500000,840.000000,-328.659641
9.000000,0.500000,845.000000,-291.960362
9.000000,0.500000,850.000000,-259.812267
9.000000,0.500000,855.000000,-231.980233
9.000000,0.500000,860.000000,-208.248549
9.000000,0.500000,865.000000,-188.428252
9.000000,0.500000,870.000000,-172.351421
9.000000,0.500000,875.000000,-159.874167
9.000000,0.500000,880.000000,-150.875788
9.000000,0.500000,885.000000,-145.257732
9.000000,0.500000,890.000000,-142.950119
9.000000,0.500000,895.000000,-143.852727
9.000000,0.500000,900.000000,-147.947209
9.000000,0.500000,905.000000,-155.180635
9.000000,0.500000,910.000000,-165.612025
9.000000,0.500000,915.000000,-179.248395
9.000000,0.500000,920.000000,-196.048677
9.000000,0.500000,925.000000,-216.132463
9.000000,0.500000,930.000000,-239.548337
9.000000,0.500000,935.000000,-266.381387
9.000000,0.500000,940.000000,-296.731264
9.000000,0.500000,945.000000,-330.734363
9.000000,0.500000,950.000000,-368.517187
9.000000,0.600000,800.000000,-979.158418
9.000000,0.600000,805.000000,-882.982188
9.000000,0.600000,810.000000,-795.130294
9.000000,0.600000,815.000000,-715.033078
9.000000,0.600000,820.000000,-642.164395
9.000000,0.600000,825.000000,-576.058306
9.000000,0.600000,830.000000,-516.272349
9.000000,0.600000,835.000000,-462.425948
9.000000,0.600000,840.000000,-414.157151
9.000000,0.600000,845.000000,-371.142823
9.000000,0.600000,850.000000,-333.090609
9.000000,0.600000,855.000000,-299.740016
9.000000,0.600000,860.000000,-270.853823
9.000000,0.600000,865.000000,-246.238589
9.000000,0.600000,870.000000,-225.661093
9.000000,0.600000,875.000000,-209.009191
9.000000,0.600000,880.000000,-196.116552
9.000000,0.600000,885.000000,-186.885432
9.000000,0.600000,890.000000,-181.188348
9.000000,0.600000,895.000000,-179.004327
9.000000,0.600000,900.000000,-180.176735
9.000000,0.600000,905.000000,-184.770025
9.000000,0.600000,910.000000,-192.713301
9.000000,0.600000,915.000000,-204.037322
9.000000,0.600000,920.000000,-218.734308
9.000000,0.600000,925.000000,-236.889148
9.000000,0.600000,930.000000,-258.473935
9.000000,0.600000,935.000000,-283.635433
9.000000,0.600000,940.000000,-312.483479
9.000000,0.600000,945.000000,-345.045303
9.000000,0.600000,950.000000,-381.525072
9.000000,0.700000,800.000000,-1123.295259
9.000000,0.700000,805.000000,-1017.374725
9.000000,0.700000,810.000000,-920.392576
9.000000,0.700000,815.000000,-831.736499
9.000000,0.700000,820.000000,-750.840649
9.000000,0.700000,825.000000,-677.205389
9.000000,0.700000,830.000000,-610.354611
9.000000,0.700000,835.000000,-549.881055
9.000000,0.700000,840.000000,-495.395582
9.000000,0.700000,845.000000,-446.551094
9.000000,0.700000,850.000000,-403.033176
9.000000,0.700000,855.000000,-364.561579
9.000000,0.700000,860.000000,-330.879950
9.000000,0.700000,865.000000,-301.767147
9.000000,0.700000,870.000000,-277.004148
9.000000,0.700000,875.000000,-256.428808
9.000000,0.700000,880.000000,-239.879033
9.000000,0.700000,885.000000,-227.225574
9.000000,0.700000,890.000000,-218.358297
9.000000,0.700000,895.000000,-213.183427
9.000000,0.700000,900.000000,-211.664636
9.000000,0.700000,905.000000,-213.660645
9.000000,0.700000,910.000000,-219.242591
9.000000,0.700000,915.000000,-228.349738
9.000000,0.700000,920.000000,-241.010350
9.000000,0.700000,925.000000,-257.275038
9.000000,0.700000,930.000000,-277.112025
9.000000,0.700000,935.000000,-300.661025
9.000000,0.700000,940.000000,-328.006607
9.000000,0.700000,945.000000,-359.182532
9.000000,0.700000,950.000000,-394.419593
9.000000,0.800000,800.000000,-1259.199388
9.000000,0.800000,805.000000,-1144.255895
9.000000,0.800000,810.000000,-1038.817241
9.000000,0.800000,815.000000,-942.230791
9.000000,0.800000,820.000000,-853.893159
9.000000,0.800000,825.000000,-773.272859
9.000000,0.800000,830.000000,-699.862005
9.000000,0.800000,835.000000,-633.228221
9.000000,0.800000,840.000000,-572.956835
9.000000,0.800000,845.000000,-518.678354
9.000000,0.800000,850.000000,-470.057868
9.000000,0.800000,855.000000,-426.796922
9.000000,0.800000,860.000000,-388.621639
9.000000,0.800000,865.000000,-355.308866
9.000000,0.800000,870.000000,-326.583636
9.000000,0.800000,875.000000,-302.347972
9.000000,0.800000,880.000000,-282.299987
9.000000,0.800000,885.000000,-266.413252
9.000000,0.800000,890.000000,-254.519692
9.000000,0.800000,895.000000,-246.555353
9.000000,0.800000,900.000000,-242.340788
9.000000,0.800000,905.000000,-241.918021
9.000000,0.800000,910.000000,-245.218824
9.000000,0.800000,915.000000,-252.202296
9.000000,0.800000,920.000000,-262.891841
9.000000,0.800000,925.000000,-277.329056
9.000000,0.800000,930.000000,-295.468460
9.000000,0.800000,935.000000,-317.444635
9.000000,0.800000,940.000000,-343.306582
9.000000,0.800000,945.000000,-373.188883
9.000000,0.800000,950.000000,-407.153613
9.000000,0.900000,800.000000,-1388.138505
9.000000,0.900000,805.000000,-1264.759935
9.000000,0.900000,810.000000,-1151.415005
9.000000,0.900000,815.000000,-1047.412718
9.000000,0.900000,820.000000,-952.113950
9.000000,0.900000,825.000000,-864.956875
9.000000,0.900000,830.000000,-785.403347
9.000000,0.900000,835.000000,-712.997092
9.000000,0.900000,840.000000,-647.299180
9.000000,0.900000,845.000000,-587.918900
9.000000,0.900000,850.000000,-534.501995
9.000000,0.900000,855.000000,-486.732915
9.000000,0.900000,860.000000,-444.325859
9.000000,0.900000,865.000000,-407.011391
9.000000,0.900000,870.000000,-374.587199
9.000000,0.900000,875.000000,-346.803741
9.000000,0.900000,880.000000,-323.505469
9.000000,0.900000,885.000000,-304.524510
9.000000,0.900000,890.000000,-289.758502
9.000000,0.900000,895.000000,-279.056804
9.000000,0.900000,900.000000,-272.355601
9.000000,0.900000,905.000000,-269.576635
9.000000,0.900000,910.000000,-270.674952
9.000000,0.900000,915.000000,-275.618215
9.000000,0.900000,920.000000,-284.403700
9.000000,0.900000,925.000000,-297.035008
9.000000,0.900000,930.000000,-313.548756
9.000000,0.900000,935.000000,-334.003534
9.000000,0.900000,940.000000,-358.445180
9.000000,0.900000,945.000000,-386.989424
9.000000,0.900000,950.000000,-419.756806
9.000000,1.000000,800.000000,-1511.084937
9.000000,1.000000,805.000000,-1379.761466
9.000000,1.000000,810.000000,-1258.969690
9.000000,1.000000,815.000000,-1147.981953
9.000000,1.000000,820.000000,-1046.124935
9.000000,1.000000,825.000000,-952.807768
9.000000,1.000000,830.000000,-867.463318
9.000000,1.000000,835.000000,-789.612424
9.000000,1.000000,840.000000,-718.792938
9.000000,1.000000,845.000000,-654.593863
9.000000,1.000000,850.000000,-596.642488
9.000000,1.000000,855.000000,-544.607018
9.000000,1.000000,860.000000,-498.186677
9.000000,1.000000,865.000000,-457.099034
9.000000,1.000000,870.000000,-421.124547
9.000000,1.000000,875.000000,-390.030975
9.000000,1.000000,880.000000,-363.599474
9.000000,1.000000,885.000000,-341.650149
9.000000,1.000000,890.000000,-324.152365
9.000000,1.000000,895.000000,-310.872556
9.000000,1.000000,900.000000,-301.725367
9.000000,1.000000,905.000000,-296.673008
9.000000,1.000000,910.000000,-295.660959
9.000000,1.000000,915.000000,-298.619180
9.000000,1.000000,920.000000,-305.566040
9.000000,1.000000,925.000000,-316.501183
9.000000,1.000000,930.000000,-331.391547
9.000000,1.000000,935.000000,-350.337115
9.000000,1.000000,940.000000,-373.402189
9.000000,1.000000,945.000000,-400.653920
9.000000,1.000000,950.000000,-432.211190
9.000000,1.100000,800.000000,-1628.803854
9.000000,1.100000,805.000000,-1489.951770
9.000000,1.100000,810.000000,-1362.103713
9.000000,1.100000,815.000000,-1244.496861
9.000000,1.100000,820.000000,-1136.425061
9.000000,1.100000,825.000000,-1037.269528
9.000000,1.100000,830.000000,-946.435251
9.000000,1.100000,835.000000,-863.421052
9.000000,1.100000,840.000000,-787.742439
9.000000,1.100000,845.000000,-718.968911
9.000000,1.100000,850.000000,-656.710029
9.000000,1.100000,855.000000,-600.618428
9.000000,1.100000,860.000000,-550.379024
9.000000,1.100000,865.000000,-505.715258
9.000000,1.100000,870.000000,-466.331789
9.000000,1.100000,875.000000,-432.015263
9.000000,1.100000,880.000000,-402.588198
9.000000,1.100000,885.000000,-377.862524
9.000000,1.100000,890.000000,-357.681017
9.000000,1.100000,895.000000,-341.921819
9.000000,1.100000,900.000000,-330.502607
9.000000,1.100000,905.000000,-323.243228
9.000000,1.100000,910.000000,-320.182711
9.000000,1.100000,915.000000,-321.228641
9.000000,1.100000,920.000000,-326.384539
9.000000,1.100000,925.000000,-335.619365
9.000000,1.100000,930.000000,-348.976790
9.000000,1.100000,935.000000,-366.472042
9.000000,1.100000,940.000000,-388.213149
9.000000,1.100000,945.000000,-414.182537
9.000000,1.100000,950.000000,-444.558506
9.000000,1.200000,800.000000,-1741.910252
9.000000,1.200000,805.000000,-1595.888473
9.000000,1.200000,810.000000,-1461.321109
9.000000,1.200000,815.000000,-1337.411500
9.000000,1.200000,820.000000,-1223.421870
9.000000,1.200000,825.000000,-1118.706525
9.000000,1.200000,830.000000,-1022.643561
9.000000,1.200000,835.000000,-934.710541
9.000000,1.200000,840.000000,-854.401400
9.000000,1.200000,845.000000,-781.266800
9.000000,1.200000,850.000000,-714.899192
9.000000,1.200000,855.000000,-654.936199
9.000000,1.200000,860.000000,-601.048969
9.000000,1.200000,865.000000,-552.925057
9.000000,1.200000,870.000000,-510.314264
9.000000,1.200000,875.000000,-472.962480
9.000000,1.200000,880.000000,-440.697122
9.000000,1.200000,885.000000,-413.225053
9.000000,1.200000,890.000000,-390.503239
9.000000,1.200000,895.000000,-372.347492
9.000000,1.200000,900.000000,-358.647045
9.000000,1.200000,905.000000,-349.319299
9.000000,1.200000,910.000000,-344.296050
9.000000,1.200000,915.000000,-343.461992
9.000000,1.200000,920.000000,-346.871992
9.000000,1.200000,925.000000,-354.497622
9.000000,1.200000,930.000000,-366.333271
9.000000,1.200000,935.000000,-382.413574
9.000000,1.200000,940.000000,-402.796604
9.000000,1.200000,945.000000,-427.566895
9.000000,1.200000,950.000000,-456.791730
9.000000,1.300000,800.000000,-1850.907235
9.000000,1.300000,805.000000,-1698.029146
9.000000,1.300000,810.000000,-1557.052714
9.000000,1.300000,815.000000,-1427.101013
9.000000,1.300000,820.000000,-1307.453357
9.000000,1.300000,825.000000,-1197.422173
9.000000,1.300000,830.000000,-1096.359547
9.000000,1.300000,835.000000,-1003.722467
9.000000,1.300000,840.000000,-918.983977
9.000000,1.300000,845.000000,-841.676492
9.000000,1.300000,850.000000,-771.375890
9.000000,1.300000,855.000000,-707.705261
9.000000,1.300000,860.000000,-650.322437
9.000000,1.300000,865.000000,-598.908520
9.000000,1.300000,870.000000,-553.198851
9.000000,1.300000,875.000000,-512.910082
9.000000,1.300000,880.000000,-477.828796
9.000000,1.300000,885.000000,-447.796306
9.000000,1.300000,890.000000,-422.616240
9.000000,1.300000,895.000000,-402.156634
9.000000,1.300000,900.000000,-386.284223
9.000000,1.300000,905.000000,-374.900327
9.000000,1.300000,910.000000,-367.938409
9.000000,1.300000,915.000000,-365.346896
9.000000,1.300000,920.000000,-367.063135
9.000000,1.300000,925.000000,-373.096092
9.000000,1.300000,930.000000,-383.449471
9.000000,1.300000,935.000000,-398.156050
9.000000,1.300000,940.000000,-417.275857
9.000000,1.300000,945.000000,-440.799095
9.000000,1.300000,950.000000,-468.914750
9.000000,1.400000,800.000000,-1956.212599
9.000000,1.400000,805.000000,-1796.754771
9.000000,1.400000,810.000000,-1649.614209
9.000000,1.400000,815.000000,-1513.879594
9.000000,1.400000,820.000000,-1388.803530
9.000000,1.400000,825.000000,-1273.672314
9.000000,1.400000,830.000000,-1167.812828
9.000000,1.400000,835.000000,-1070.662100
9.000000,1.400000,840.000000,-981.672901
9.000000,1.400000,845.000000,-900.359929
9.000000,1.400000,850.000000,-826.282963
9.000000,1.400000,855.000000,-759.050981
9.000000,1.400000,860.000000,-698.308894
9.000000,1.400000,865.000000,-643.743243
9.000000,1.400000,870.000000,-595.019035
9.000000,1.400000,875.000000,-551.896103
9.000000,1.400000,880.000000,-514.169098
9.000000,1.400000,885.000000,-481.624615
9.000000,1.400000,890.000000,-454.091050
9.000000,1.400000,895.000000,-431.385272
9.000000,1.400000,900.000000,-413.407711
9.000000,1.400000,905.000000,-400.051007
9.000000,1.400000,910.000000,-391.225105
9.000000,1.400000,915.000000,-386.884833
9.000000,1.400000,920.000000,-386.990144
9.000000,1.400000,925.000000,-391.459268
9.000000,1.400000,930.000000,-400.366102
9.000000,1.400000,935.000000,-413.712645
9.000000,1.400000,940.000000,-431.567295
9.000000,1.400000,945.000000,-453.907309
9.000000,1.400000,950.000000,-480.913035
9.500000,0.400000,800.000000,-777.811623
9.500000,0.400000,805.000000,-702.350465
9.500000,0.400000,810.000000,-633.974893
9.500000,0.400000,815.000000,-572.194108
9.500000,0.400000,820.000000,-516.554508
9.500000,0.400000,825.000000,-466.648470
9.500000,0.400000,830.000000,-422.108656
9.500000,0.400000,835.000000,-382.591925
9.500000,0.400000,840.000000,-347.788311
9.500000,0.400000,845.000000,-317.428287
9.500000,0.400000,850.000000,-291.262009
9.500000,0.400000,855.000000,-269.063711
9.500000,0.400000,860.000000,-250.638888
9.500000,0.400000,865.000000,-235.819503
9.500000,0.400000,870.000000,-224.446796
9.500000,0.400000,875.000000,-216.402138
9.500000,0.400000,880.000000,-211.578334
9.500000,0.400000,885.000000,-209.888267
9.500000,0.400000,890.000000,-211.272516
9.500000,0.400000,895.000000,-215.682075
9.500000,0.400000,900.000000,-223.102678
9.500000,0.400000,905.000000,-233.513651
9.500000,0.400000,910.000000,-246.951387
9.500000,0.400000,915.000000,-263.382026
9.500000,0.400000,920.000000,-282.932968
9.500000,0.400000,925.000000,-305.629293
9.500000,0.400000,930.000000,-331.559312
9.500000,0.400000,935.000000,-360.827941
9.500000,0.400000,940.000000,-393.550023
9.500000,0.400000,945.000000,-429.863215
9.500000,0.400000,950.000000,-469.950936
9.500000,0.500000,800.000000,-948.351338
9.500000,0.500000,805.000000,-860.671139
9.500000,0.500000,810.000000,-780.867309
9.500000,0.500000,815.000000,-708.398260
9.500000,0.500000,820.000000,-642.762890
9.500000,0.500000,825.000000,-583.511634
9.500000,0.500000,830.000000,-530.239718
9.500000,0.500000,835.000000,-482.567136
9.500000,0.500000,840.000000,-440.149912
9.500000,0.500000,845.000000,-402.693580
9.500000,0.500000,850.000000,-369.906786
9.500000,0.500000,855.000000,-341.547487
9.500000,0.500000,860.000000,-317.391621
9.500000,0.500000,865.000000,-297.243661
9.500000,0.500000,870.000000,-280.963303
9.500000,0.500000,875.000000,-268.298776
9.500000,0.500000,880.000000,-259.226488
9.500000,0.500000,885.000000,-253.633929
9.500000,0.500000,890.000000,-251.347102
9.500000,0.500000,895.000000,-252.426541
9.500000,0.500000,900.000000,-256.735369
9.500000,0.500000,905.000000,-264.260180
9.500000,0.500000,910.000000,-275.036063
9.500000,0.500000,915.000000,-289.055530
9.500000,0.500000,920.000000,-306.359850
9.500000,0.500000,925.000000,-326.999536
9.500000,0.500000,930.000000,-351.027624
9.500000,0.500000,935.000000,-378.560824
9.500000,0.500000,940.000000,-409.681185
9.500000,0.500000,945.000000,-444.521613
9.500000,0.500000,950.000000,-483.228224
9.500000,0.600000,800.000000,-1106.368816
9.500000,0.600000,805.000000,-1007.698789
9.500000,0.600000,810.000000,-917.604803
9.500000,0.600000,815.000000,-835.498537
9.500000,0.600000,820.000000,-760.835345
9.500000,0.600000,825.000000,-693.134499
9.500000,0.600000,830.000000,-631.936316
9.500000,0.600000,835.000000,-576.848837
9.500000,0.600000,840.000000,-527.496183
9.500000,0.600000,845.000000,-483.543437
9.500000,0.600000,850.000000,-444.687365
9.500000,0.600000,855.000000,-410.658571
9.500000,0.600000,860.000000,-381.210613
9.500000,0.600000,865.000000,-356.139807
9.500000,0.600000,870.000000,-335.215094
9.500000,0.600000,875.000000,-318.303060
9.500000,0.600000,880.000000,-305.280650
9.500000,0.600000,885.000000,-295.935202
9.500000,0.600000,890.000000,-290.268714
9.500000,0.600000,895.000000,-288.132283
9.500000,0.600000,900.000000,-289.490065
9.500000,0.600000,905.000000,-294.271963
9.500000,0.600000,910.000000,-302.530954
9.500000,0.600000,915.000000,-314.214299
9.500000,0.600000,920.000000,-329.387838
9.500000,0.600000,925.000000,-348.009810
9.500000,0.600000,930.000000,-370.209422
9.500000,0.600000,935.000000,-396.032164
9.500000,0.600000,940.000000,-425.601189
9.500000,0.600000,945.000000,-459.025666
9.500000,0.600000,950.000000,-496.414370
9.500000,0.700000,800.000000,-1254.274154
9.500000,0.700000,805.000000,-1145.552395
9.500000,0.700000,810.000000,-1046.041025
9.500000,0.700000,815.000000,-955.107971
9.500000,0.700000,820.000000,-872.167871
9.500000,0.700000,825.000000,-796.705420
9.500000,0.700000,830.000000,-728.226399
9.500000,0.700000,835.000000,-666.311425
9.500000,0.700000,840.000000,-610.556655
9.500000,0.700000,845.000000,-560.602481
9.500000,0.700000,850.000000,-516.122898
9.500000,0.700000,855.000000,-476.828065
9.500000,0.700000,860.000000,-442.451710
9.500000,0.700000,865.000000,-412.760265
9.500000,0.700000,870.000000,-387.540848
9.500000,0.700000,875.000000,-366.611151
9.500000,0.700000,880.000000,-349.810911
9.500000,0.700000,885.000000,-337.017258
9.500000,0.700000,890.000000,-328.040623
9.500000,0.700000,895.000000,-322.883665
9.500000,0.700000,900.000000,-321.420773
9.500000,0.700000,905.000000,-323.619857
9.500000,0.700000,910.000000,-329.475711
9.500000,0.700000,915.000000,-338.917115
9.500000,0.700000,920.000000,-351.953313
9.500000,0.700000,925.000000,-368.677715
9.500000,0.700000,930.000000,-389.092632
9.500000,0.700000,935.000000,-413.272796
9.500000,0.700000,940.000000,-441.322329
9.500000,0.700000,945.000000,-473.344498
9.500000,0.700000,950.000000,-509.414141
9.500000,0.800000,800.000000,-1393.791159
9.500000,0.800000,805.000000,-1275.761044
9.500000,0.800000,810.000000,-1167.526132
9.500000,0.800000,815.000000,-1068.412989
9.500000,0.800000,820.000000,-977.797752
9.500000,0.800000,825.000000,-895.132449
9.500000,0.800000,830.000000,-819.890271
9.500000,0.800000,835.000000,-751.626049
9.500000,0.800000,840.000000,-689.909724
9.500000,0.800000,845.000000,-634.358661
9.500000,0.800000,850.000000,-584.625755
9.500000,0.800000,855.000000,-540.402381
9.500000,0.800000,860.000000,-501.404156
9.500000,0.800000,865.000000,-467.395239
9.500000,0.800000,870.000000,-438.105086
9.500000,0.800000,875.000000,-413.374822
9.500000,0.800000,880.000000,-393.019723
9.500000,0.800000,885.000000,-376.916962
9.500000,0.800000,890.000000,-364.838970
9.500000,0.800000,895.000000,-356.789347
9.500000,0.800000,900.000000,-352.672185
9.500000,0.800000,905.000000,-352.341105
9.500000,0.800000,910.000000,-355.837340
9.500000,0.800000,915.000000,-363.107022
9.500000,0.800000,920.000000,-374.167626
9.500000,0.800000,925.000000,-389.013469
9.500000,0.800000,930.000000,-407.709038
9.500000,0.800000,935.000000,-430.283854
9.500000,0.800000,940.000000,-456.851877
9.500000,0.800000,945.000000,-487.482631
9.500000,0.800000,950.000000,-522.312086
9.500000,0.900000,800.000000,-1526.203284
9.500000,0.900000,805.000000,-1399.471054
9.500000,0.900000,810.000000,-1283.079696
9.500000,0.900000,815.000000,-1176.316421
9.500000,0.900000,820.000000,-1078.520704
9.500000,0.900000,825.000000,-989.113460
9.500000,0.900000,830.000000,-907.536845
9.500000,0.900000,835.000000,-833.321183
9.500000,0.900000,840.000000,-766.011524
9.500000,0.900000,845.000000,-705.203445
9.500000,0.900000,850.000000,-650.529959
9.500000,0.900000,855.000000,-601.664843
9.500000,0.900000,860.000000,-558.306837
9.500000,0.900000,865.000000,-520.190483
9.500000,0.900000,870.000000,-487.087287
9.500000,0.900000,875.000000,-458.742346
9.500000,0.900000,880.000000,-435.012879
9.500000,0.900000,885.000000,-415.717689
9.500000,0.900000,890.000000,-400.750414
9.500000,0.900000,895.000000,-389.901519
9.500000,0.900000,900.000000,-383.203722
9.500000,0.900000,905.000000,-380.456356
9.500000,0.900000,910.000000,-381.705577
9.500000,0.900000,915.000000,-386.890551
9.500000,0.900000,920.000000,-396.001115
9.500000,0.900000,925.000000,-409.043649
9.500000,0.900000,930.000000,-426.055262
9.500000,0.900000,935.000000,-447.084206
9.500000,0.900000,940.000000,-472.191126
9.500000,0.900000,945.000000,-501.487722
9.500000,0.900000,950.000000,-535.071991
9.500000,1.000000,800.000000,-1652.496670
9.500000,1.000000,805.000000,-1517.568033
9.500000,1.000000,810.000000,-1393.494018
9.500000,1.000000,815.000000,-1279.524206
9.500000,1.000000,820.000000,-1174.962987
9.500000,1.000000,825.000000,-1079.201487
9.500000,1.000000,830.000000,-991.652136
9.500000,1.000000,835.000000,-911.821789
9.500000,1.000000,840.000000,-839.231681
9.500000,1.000000,845.000000,-773.456584
9.500000,1.000000,850.000000,-714.110561
9.500000,1.000000,855.000000,-660.850695
9.500000,1.000000,860.000000,-613.365908
9.500000,1.000000,865.000000,-571.360647
9.500000,1.000000,870.000000,-534.589910
9.500000,1.000000,875.000000,-502.829481
9.500000,1.000000,880.000000,-475.889992
9.500000,1.000000,885.000000,-453.599592
9.500000,1.000000,890.000000,-435.731748
9.500000,1.000000,895.000000,-422.263933
9.500000,1.000000,900.000000,-413.056916
9.500000,1.000000,905.000000,-408.032227
9.500000,1.000000,910.000000,-407.112102
9.500000,1.000000,915.000000,-410.274251
9.500000,1.000000,920.000000,-417.490650
9.500000,1.000000,925.000000,-428.805181
9.500000,1.000000,930.000000,-444.153606
9.500000,1.000000,935.000000,-463.662717
9.500000,1.000000,940.000000,-487.357416
9.500000,1.000000,945.000000,-515.338115
9.500000,1.000000,950.000000,-547.739516
9.500000,1.100000,800.000000,-1773.448465
9.500000,1.100000,805.000000,-1630.753039
9.500000,1.100000,810.000000,-1499.399301
9.500000,1.100000,815.000000,-1378.600723
9.500000,1.100000,820.000000,-1267.627999
9.500000,1.100000,825.000000,-1165.843614
9.500000,1.100000,830.000000,-1072.631407
9.500000,1.100000,835.000000,-987.475654
9.500000,1.100000,840.000000,-909.874683
9.500000,1.100000,845.000000,-839.383260
9.500000,1.100000,850.000000,-775.597267
9.500000,1.100000,855.000000,-718.157800
9.500000,1.100000,860.000000,-666.739078
9.500000,1.100000,865.000000,-621.045445
9.500000,1.100000,870.000000,-580.775854
9.500000,1.100000,875.000000,-545.738590
9.500000,1.100000,880.000000,-515.704727
9.500000,1.100000,885.000000,-490.509597
9.500000,1.100000,890.000000,-469.948742
9.500000,1.100000,895.000000,-453.943313
9.500000,1.100000,900.000000,-442.342773
9.500000,1.100000,905.000000,-435.064272
9.500000,1.100000,910.000000,-432.047122
9.500000,1.100000,915.000000,-433.251067
9.500000,1.100000,920.000000,-438.644699
9.500000,1.100000,925.000000,-448.223324
9.500000,1.100000,930.000000,-462.010319
9.500000,1.100000,935.000000,-480.036806
9.500000,1.100000,940.000000,-502.357396
9.500000,1.100000,945.000000,-529.049343
9.500000,1.100000,950.000000,-560.259818
9.500000,1.200000,800.000000,-1889.684036
9.500000,1.200000,805.000000,-1739.592310
9.500000,1.200000,810.000000,-1601.306597
9.500000,1.200000,815.000000,-1474.005612
9.500000,1.200000,820.000000,-1356.927586
9.500000,1.200000,825.000000,-1249.407388
9.500000,1.200000,830.000000,-1150.801267
9.500000,1.200000,835.000000,-1060.571700
9.500000,1.200000,840.000000,-978.194893
9.500000,1.200000,845.000000,-903.206300
9.500000,1.200000,850.000000,-835.184258
9.500000,1.200000,855.000000,-773.754463
9.500000,1.200000,860.000000,-718.577000
9.500000,1.200000,865.000000,-669.324374
9.500000,1.200000,870.000000,-625.736117
9.500000,1.200000,875.000000,-587.559924
9.500000,1.200000,880.000000,-554.610172
9.500000,1.200000,885.000000,-526.581667
9.500000,1.200000,890.000000,-503.419303
9.500000,1.200000,895.000000,-484.945376
9.500000,1.200000,900.000000,-471.038646
9.500000,1.200000,905.000000,-461.602647
9.500000,1.200000,910.000000,-456.595476
9.500000,1.200000,915.000000,-455.865739
9.500000,1.200000,920.000000,-459.482048
9.500000,1.200000,925.000000,-467.399217
9.500000,1.200000,930.000000,-479.628149
9.500000,1.200000,935.000000,-496.202837
9.500000,1.200000,940.000000,-517.208127
9.500000,1.200000,945.000000,-542.631329
9.500000,1.200000,950.000000,-572.662772
9.500000,1.300000,800.000000,-2001.715482
9.500000,1.300000,805.000000,-1844.550995
9.500000,1.300000,810.000000,-1699.654474
9.500000,1.300000,815.000000,-1566.119119
9.500000,1.300000,820.000000,-1443.203784
9.500000,1.300000,825.000000,-1330.199319
9.500000,1.300000,830.000000,-1226.435283
9.500000,1.300000,835.000000,-1131.353047
9.500000,1.300000,840.000000,-1044.407397
9.500000,1.300000,845.000000,-965.115079
9.500000,1.300000,850.000000,-893.037437
9.500000,1.300000,855.000000,-827.785267
9.500000,1.300000,860.000000,-769.004994
9.500000,1.300000,865.000000,-716.356532
9.500000,1.300000,870.000000,-669.565004
9.500000,1.300000,875.000000,-628.371227
9.500000,1.300000,880.000000,-592.578781
9.500000,1.300000,885.000000,-561.870369
9.500000,1.300000,890.000000,-536.191589
9.500000,1.300000,895.000000,-515.342630
9.500000,1.300000,900.000000,-499.242975
9.500000,1.300000,905.000000,-487.675101
9.500000,1.300000,910.000000,-480.677383
9.500000,1.300000,915.000000,-478.160888
9.500000,1.300000,920.000000,-480.016995
9.500000,1.300000,925.000000,-486.315733
9.500000,1.300000,930.000000,-497.035965
9.500000,1.300000,935.000000,-512.196022
9.500000,1.300000,940.000000,-531.875083
9.500000,1.300000,945.000000,-556.061786
9.500000,1.300000,950.000000,-584.929261
9.500000,1.400000,800.000000,-2109.968436
9.500000,1.400000,805.000000,-1946.016747
9.500000,1.400000,810.000000,-1794.761337
9.500000,1.400000,815.000000,-1655.260062
9.500000,1.400000,820.000000,-1526.744341
9.500000,1.400000,825.000000,-1408.478194
9.500000,1.400000,830.000000,-1299.765309
9.500000,1.400000,835.000000,-1200.026581
9.500000,1.400000,840.000000,-1108.696003
9.500000,1.400000,845.000000,-1025.272156
9.500000,1.400000,850.000000,-949.299880
9.500000,1.400000,855.000000,-880.375505
9.500000,1.400000,860.000000,-818.132205
9.500000,1.400000,865.000000,-762.223548
9.500000,1.400000,870.000000,-712.343145
9.500000,1.400000,875.000000,-668.259443
9.500000,1.400000,880.000000,-629.689975
9.500000,1.400000,885.000000,-596.416355
9.500000,1.400000,890.000000,-568.337601
9.500000,1.400000,895.000000,-545.158309
9.500000,1.400000,900.000000,-526.862556
9.500000,1.400000,905.000000,-513.298718
9.500000,1.400000,910.000000,-504.386825
9.500000,1.400000,915.000000,-500.085479
9.500000,1.400000,920.000000,-500.256110
9.500000,1.400000,925.000000,-505.009900
9.500000,1.400000,930.000000,-514.226247
9.500000,1.400000,935.000000,-527.999276
9.500000,1.400000,940.000000,-546.356074
9.500000,1.400000,945.000000,-569.365351
9.500000,1.400000,950.000000,-597.106852
10.000000,0.400000,800.000000,-895.977052
10.000000,0.400000,805.000000,-818.808055
10.000000,0.400000,810.000000,-748.920653
10.000000,0.400000,815.000000,-685.808238
10.000000,0.400000,820.000000,-629.001444
10.000000,0.400000,825.000000,-578.079183
10.000000,0.400000,830.000000,-532.662837
10.000000,0.400000,835.000000,-492.396736
10.000000,0.400000,840.000000,-456.959393
10.000000,0.400000,845.000000,-426.074002
10.000000,0.400000,850.000000,-399.482090
10.000000,0.400000,855.000000,-376.949028
10.000000,0.400000,860.000000,-358.274426
10.000000,0.400000,865.000000,-343.282944
10.000000,0.400000,870.000000,-331.816185
10.000000,0.400000,875.000000,-323.755115
10.000000,0.400000,880.000000,-318.970423
10.000000,0.400000,885.000000,-317.410019
10.000000,0.400000,890.000000,-318.930446
10.000000,0.400000,895.000000,-323.598530
10.000000,0.400000,900.000000,-331.272036
10.000000,0.400000,905.000000,-342.029454
10.000000,0.400000,910.000000,-355.855172
10.000000,0.400000,915.000000,-372.781227
10.000000,0.400000,920.000000,-392.882653
10.000000,0.400000,925.000000,-416.171153
10.000000,0.400000,930.000000,-442.737310
10.000000,0.400000,935.000000,-472.735564
10.000000,0.400000,940.000000,-506.249813
10.000000,0.400000,945.000000,-543.436201
10.000000,0.400000,950.000000,-584.442883
10.000000,0.500000,800.000000,-1070.473614
10.000000,0.500000,805.000000,-980.728405
10.000000,0.500000,810.000000,-899.081798
10.000000,0.500000,815.000000,-824.975081
10.000000,0.500000,820.000000,-757.890111
10.000000,0.500000,825.000000,-697.362666
10.000000,0.500000,830.000000,-642.975540
10.000000,0.500000,835.000000,-594.335014
10.000000,0.500000,840.000000,-551.084425
10.000000,0.500000,845.000000,-512.916864
10.000000,0.500000,850.000000,-479.543385
10.000000,0.500000,855.000000,-450.699752
10.000000,0.500000,860.000000,-426.158977
10.000000,0.500000,865.000000,-405.719297
10.000000,0.500000,870.000000,-389.200267
10.000000,0.500000,875.000000,-376.478762
10.000000,0.500000,880.000000,-367.333399
10.000000,0.500000,885.000000,-361.729810
10.000000,0.500000,890.000000,-359.572046
10.000000,0.500000,895.000000,-360.816812
10.000000,0.500000,900.000000,-365.358173
10.000000,0.500000,905.000000,-373.171413
10.000000,0.500000,910.000000,-384.341605
10.000000,0.500000,915.000000,-398.794923
10.000000,0.500000,920.000000,-416.594724
10.000000,0.500000,925.000000,-437.790202
10.000000,0.500000,930.000000,-462.431430
10.000000,0.500000,935.000000,-490.651993
10.000000,0.500000,940.000000,-522.555390
10.000000,0.500000,945.000000,-558.265375
10.000000,0.500000,950.000000,-597.882186
10.000000,0.600000,800.000000,-1232.273727
10.000000,0.600000,805.000000,-1131.213512
10.000000,0.600000,810.000000,-1038.974115
10.000000,0.600000,815.000000,-954.948944
10.000000,0.600000,820.000000,-878.575226
10.000000,0.600000,825.000000,-809.349545
10.000000,0.600000,830.000000,-746.819977
10.000000,0.600000,835.000000,-690.558796
10.000000,0.600000,840.000000,-640.178232
10.000000,0.600000,845.000000,-595.351252
10.000000,0.600000,850.000000,-555.744596
10.000000,0.600000,855.000000,-521.086675
10.000000,0.600000,860.000000,-491.122076
10.000000,0.600000,865.000000,-465.631552
10.000000,0.600000,870.000000,-444.400877
10.000000,0.600000,875.000000,-427.279383
10.000000,0.600000,880.000000,-414.087564
10.000000,0.600000,885.000000,-404.714152
10.000000,0.600000,890.000000,-399.050478
10.000000,0.600000,895.000000,-397.039509
10.000000,0.600000,900.000000,-398.544509
10.000000,0.600000,905.000000,-403.609679
10.000000,0.600000,910.000000,-412.179357
10.000000,0.600000,915.000000,-424.256777
10.000000,0.600000,920.000000,-439.855594
10.000000,0.600000,925.000000,-459.029554
10.000000,0.600000,930.000000,-481.836402
10.000000,0.600000,935.000000,-508.333552
10.000000,0.600000,940.000000,-538.675350
10.000000,0.600000,945.000000,-572.887683
10.000000,0.600000,950.000000,-611.184440
10.000000,0.700000,800.000000,-1383.801573
10.000000,0.700000,805.000000,-1272.390327
10.000000,0.700000,810.000000,-1170.454182
10.000000,0.700000,815.000000,-1077.341744
10.000000,0.700000,820.000000,-992.448535
10.000000,0.700000,825.000000,-915.243924
10.000000,0.700000,830.000000,-845.215931
10.000000,0.700000,835.000000,-781.933326
10.000000,0.700000,840.000000,-724.977860
10.000000,0.700000,845.000000,-673.977679
10.000000,0.700000,850.000000,-628.595444
10.000000,0.700000,855.000000,-588.531962
10.000000,0.700000,860.000000,-553.511282
10.000000,0.700000,865.000000,-523.291656
10.000000,0.700000,870.000000,-497.688572
10.000000,0.700000,875.000000,-476.437982
10.000000,0.700000,880.000000,-459.373582
10.000000,0.700000,885.000000,-446.435277
10.000000,0.700000,890.000000,-437.438035
10.000000,0.700000,895.000000,-432.310542
10.000000,0.700000,900.000000,-430.974763
10.000000,0.700000,905.000000,-433.375347
10.000000,0.700000,910.000000,-439.474620
10.000000,0.700000,915.000000,-449.263681
10.000000,0.700000,920.000000,-462.744095
10.000000,0.700000,925.000000,-479.987039
10.000000,0.700000,930.000000,-500.946000
10.000000,0.700000,935.000000,-525.780944
10.000000,0.700000,940.000000,-554.580346
10.000000,0.700000,945.000000,-587.389775
10.000000,0.700000,950.000000,-624.378965
10.000000,0.800000,800.000000,-1526.795921
10.000000,0.800000,805.000000,-1405.798291
10.000000,0.800000,810.000000,-1294.878589
10.000000,0.800000,815.000000,-1193.343059
10.000000,0.800000,820.000000,-1100.547792
10.000000,0.800000,825.000000,-1015.928705
10.000000,0.800000,830.000000,-938.940431
10.000000,0.800000,835.000000,-869.125311
10.000000,0.800000,840.000000,-806.038200
10.000000,0.800000,845.000000,-749.283597
10.000000,0.800000,850.000000,-698.502457
10.000000,0.800000,855.000000,-653.376228
10.000000,0.800000,860.000000,-613.610263
10.000000,0.800000,865.000000,-578.950835
10.000000,0.800000,870.000000,-549.158831
10.000000,0.800000,875.000000,-524.008849
10.000000,0.800000,880.000000,-503.374123
10.000000,0.800000,885.000000,-486.998043
10.000000,0.800000,890.000000,-474.870778
10.000000,0.800000,895.000000,-466.761615
10.000000,0.800000,900.000000,-462.674362
10.000000,0.800000,905.000000,-462.517222
10.000000,0.800000,910.000000,-466.261602
10.000000,0.800000,915.000000,-473.820459
10.000000,0.800000,920.000000,-485.259460
10.000000,0.800000,925.000000,-500.574431
10.000000,0.800000,930.000000,-519.806749
10.000000,0.800000,935.000000,-543.003232
10.000000,0.800000,940.000000,-570.271012
10.000000,0.800000,945.000000,-601.715499
10.000000,0.800000,950.000000,-637.394036
10.000000,0.900000,800.000000,-1662.554183
10.000000,0.900000,805.000000,-1532.594186
10.000000,0.900000,810.000000,-1413.274319
10.000000,0.900000,815.000000,-1303.860507
10.000000,0.900000,820.000000,-1203.671295
10.000000,0.900000,825.000000,-1112.110738
10.000000,0.900000,830.000000,-1028.601692
10.000000,0.900000,835.000000,-952.661389
10.000000,0.900000,840.000000,-883.819180
10.000000,0.900000,845.000000,-821.657221
10.000000,0.900000,850.000000,-765.796053
10.000000,0.900000,855.000000,-715.899029
10.000000,0.900000,860.000000,-671.654117
10.000000,0.900000,865.000000,-632.808338
10.000000,0.900000,870.000000,-599.059542
10.000000,0.900000,875.000000,-570.212217
10.000000,0.900000,880.000000,-546.096948
10.000000,0.900000,885.000000,-526.515612
10.000000,0.900000,890.000000,-511.320061
10.000000,0.900000,895.000000,-500.448332
10.000000,0.900000,900.000000,-493.697712
10.000000,0.900000,905.000000,-491.072951
10.000000,0.900000,910.000000,-492.502626
10.000000,0.900000,915.000000,-497.942575
10.000000,0.900000,920.000000,-507.427891
10.000000,0.900000,925.000000,-520.871664
10.000000,0.900000,930.000000,-538.399381
10.000000,0.900000,935.000000,-560.008911
10.000000,0.900000,940.000000,-585.806622
10.000000,0.900000,945.000000,-615.863655
10.000000,0.900000,950.000000,-650.335061
10.000000,1.000000,800.000000,-1792.074952
10.000000,1.000000,805.000000,-1653.673373
10.000000,1.000000,810.000000,-1526.441032
10.000000,1.000000,815.000000,-1409.605294
10.000000,1.000000,820.000000,-1302.448765
10.000000,1.000000,825.000000,-1204.344991
10.000000,1.000000,830.000000,-1114.686389
10.000000,1.000000,835.000000,-1032.966161
10.000000,1.000000,840.000000,-958.689269
10.000000,1.000000,845.000000,-891.416545
10.000000,1.000000,850.000000,-830.749106
10.000000,1.000000,855.000000,-776.333161
10.000000,1.000000,860.000000,-727.847567
10.000000,1.000000,865.000000,-684.981892
10.000000,1.000000,870.000000,-647.490703
10.000000,1.000000,875.000000,-615.136913
10.000000,1.000000,880.000000,-587.721166
10.000000,1.000000,885.000000,-565.031973
10.000000,1.000000,890.000000,-546.947918
10.000000,1.000000,895.000000,-533.338219
10.000000,1.000000,900.000000,-524.063464
10.000000,1.000000,905.000000,-519.081569
10.000000,1.000000,910.000000,-518.315520
10.000000,1.000000,915.000000,-521.669018
10.000000,1.000000,920.000000,-529.200727
10.000000,1.000000,925.000000,-540.881791
10.000000,1.000000,930.000000,-556.733012
10.000000,1.000000,935.000000,-576.817162
10.000000,1.000000,940.000000,-601.167176
10.000000,1.000000,945.000000,-629.897029
10.000000,1.000000,950.000000,-663.102207
10.000000,1.100000,800.000000,-1916.146306
10.000000,1.100000,805.000000,-1769.745715
10.000000,1.100000,810.000000,-1635.015835
10.000000,1.100000,815.000000,-1511.147017
10.000000,1.100000,820.000000,-1397.387339
10.000000,1.100000,825.000000,-1293.081011
10.000000,1.100000,830.000000,-1197.591169
10.000000,1.100000,835.000000,-1110.387897
10.000000,1.100000,840.000000,-1030.952702
10.000000,1.100000,845.000000,-958.825931
10.000000,1.100000,850.000000,-893.590070
10.000000,1.100000,855.000000,-834.874936
10.000000,1.100000,860.000000,-782.344292
10.000000,1.100000,865.000000,-735.674539
10.000000,1.100000,870.000000,-694.624363
10.000000,1.100000,875.000000,-658.882769
10.000000,1.100000,880.000000,-628.292958
10.000000,1.100000,885.000000,-602.652243
10.000000,1.100000,890.000000,-581.777620
10.000000,1.100000,895.000000,-565.545987
10.000000,1.100000,900.000000,-553.838143
10.000000,1.100000,905.000000,-546.549135
10.000000,1.100000,910.000000,-543.623683
10.000000,1.100000,915.000000,-545.015070
10.000000,1.100000,920.000000,-550.670323
10.000000,1.100000,925.000000,-560.611177
10.000000,1.100000,930.000000,-574.839504
10.000000,1.100000,935.000000,-593.407880
10.000000,1.100000,940.000000,-616.386559
10.000000,1.100000,945.000000,-643.777761
10.000000,1.100000,950.000000,-675.782368
10.000000,1.200000,800.000000,-2035.403148
10.000000,1.200000,805.000000,-1881.385295
10.000000,1.200000,810.000000,-1739.516092
10.000000,1.200000,815.000000,-1608.950254
10.000000,1.200000,820.000000,-1488.902583
10.000000,1.200000,825.000000,-1378.688995
10.000000,1.200000,830.000000,-1277.644369
10.000000,1.200000,835.000000,-1185.216466
10.000000,1.200000,840.000000,-1100.864145
10.000000,1.200000,845.000000,-1024.107980
10.000000,1.200000,850.000000,-954.512489
10.000000,1.200000,855.000000,-891.691713
10.000000,1.200000,860.000000,-835.294918
10.000000,1.200000,865.000000,-785.006547
10.000000,1.200000,870.000000,-740.489375
10.000000,1.200000,875.000000,-701.537913
10.000000,1.200000,880.000000,-667.912458
10.000000,1.200000,885.000000,-639.453057
10.000000,1.200000,890.000000,-615.862215
10.000000,1.200000,895.000000,-597.116224
10.000000,1.200000,900.000000,-583.050262
10.000000,1.200000,905.000000,-573.540214
10.000000,1.200000,910.000000,-568.547053
10.000000,1.200000,915.000000,-567.978290
10.000000,1.200000,920.000000,-571.835298
10.000000,1.200000,925.000000,-580.071553
10.000000,1.200000,930.000000,-592.729052
10.000000,1.200000,935.000000,-609.803679
10.000000,1.200000,940.000000,-631.391905
10.000000,1.200000,945.000000,-657.526243
10.000000,1.200000,950.000000,-688.336678
10.000000,1.300000,800.000000,-2150.365907
10.000000,1.300000,805.000000,-1989.064217
10.000000,1.300000,810.000000,-1840.368751
10.000000,1.300000,815.000000,-1703.399824
10.000000,1.300000,820.000000,-1577.340094
10.000000,1.300000,825.000000,-1461.478119
10.000000,1.300000,830.000000,-1355.121435
10.000000,1.300000,835.000000,-1257.696192
10.000000,1.300000,840.000000,-1168.639313
10.000000,1.300000,845.000000,-1087.452221
10.000000,1.300000,850.000000,-1013.682038
10.000000,1.300000,855.000000,-946.927546
10.000000,1.300000,860.000000,-886.824013
10.000000,1.300000,865.000000,-833.017411
10.000000,1.300000,870.000000,-785.232861
10.000000,1.300000,875.000000,-743.180307
10.000000,1.300000,880.000000,-706.648513
10.000000,1.300000,885.000000,-675.399974
10.000000,1.300000,890.000000,-649.247934
10.000000,1.300000,895.000000,-628.064816
10.000000,1.300000,900.000000,-611.709311
10.000000,1.300000,905.000000,-600.067238
10.000000,1.300000,910.000000,-593.079765
10.000000,1.300000,915.000000,-590.602051
10.000000,1.300000,920.000000,-592.681467
10.000000,1.300000,925.000000,-599.302977
10.000000,1.300000,930.000000,-610.373919
10.000000,1.300000,935.000000,-626.018071
10.000000,1.300000,940.000000,-646.254832
10.000000,1.300000,945.000000,-671.146970
10.000000,1.300000,950.000000,-700.789892
10.000000,1.400000,800.000000,-2261.467504
10.000000,1.400000,805.000000,-2093.176295
10.000000,1.400000,810.000000,-1937.950781
10.000000,1.400000,815.000000,-1794.818734
10.000000,1.400000,820.000000,-1662.990959
10.000000,1.400000,825.000000,-1541.709750
10.000000,1.400000,830.000000,-1430.256133
10.000000,1.400000,835.000000,-1328.035284
10.000000,1.400000,840.000000,-1234.462834
10.000000,1.400000,845.000000,-1149.021609
10.000000,1.400000,850.000000,-1071.241838
10.000000,1.400000,855.000000,-1000.707490
10.000000,1.400000,860.000000,-937.040268
10.000000,1.400000,865.000000,-879.879146
10.000000,1.400000,870.000000,-828.912633
10.000000,1.400000,875.000000,-783.879424
10.000000,1.400000,880.000000,-744.529554
10.000000,1.400000,885.000000,-710.613529
10.000000,1.400000,890.000000,-681.972840
10.000000,1.400000,895.000000,-658.450334
10.000000,1.400000,900.000000,-639.876649
10.000000,1.400000,905.000000,-626.135836
10.000000,1.400000,910.000000,-617.167479
10.000000,1.400000,915.000000,-612.886548
10.000000,1.400000,920.000000,-613.280088
10.000000,1.400000,925.000000,-618.257006
10.000000,1.400000,930.000000,-627.825152
10.000000,1.400000,935.000000,-642.057913
10.000000,1.400000,940.000000,-660.970026
10.000000,1.400000,945.000000,-684.638462
10.000000,1.400000,950.000000,-713.150712
10.500000,0.400000,800.000000,-1013.258222
10.500000,0.400000,805.000000,-934.458707
10.500000,0.400000,810.000000,-863.131057
10.500000,0.400000,815.000000,-798.753167
10.500000,0.400000,820.000000,-740.840207
10.500000,0.400000,825.000000,-688.957913
10.500000,0.400000,830.000000,-642.716656
10.500000,0.400000,835.000000,-601.748514
10.500000,0.400000,840.000000,-565.720745
10.500000,0.400000,845.000000,-534.349518
10.500000,0.400000,850.000000,-507.367987
10.500000,0.400000,855.000000,-484.532910
10.500000,0.400000,860.000000,-465.638256
10.500000,0.400000,865.000000,-450.503728
10.500000,0.400000,870.000000,-438.996964
10.500000,0.400000,875.000000,-430.923592
10.500000,0.400000,880.000000,-426.170215
10.500000,0.400000,885.000000,-424.719022
10.500000,0.400000,890.000000,-426.445504
10.500000,0.400000,895.000000,-431.329491
10.500000,0.400000,900.000000,-439.332757
10.500000,0.400000,905.000000,-450.446557
10.500000,0.400000,910.000000,-464.691879
10.500000,0.400000,915.000000,-482.095558
10.500000,0.400000,920.000000,-502.709131
10.500000,0.400000,925.000000,-526.602936
10.500000,0.400000,930.000000,-553.873946
10.500000,0.400000,935.000000,-584.579041
10.500000,0.400000,940.000000,-618.899927
10.500000,0.400000,945.000000,-656.960158
10.500000,0.400000,950.000000,-698.942582
10.500000,0.500000,800.000000,-1191.549872
10.500000,0.500000,805.000000,-1099.826914
10.500000,0.500000,810.000000,-1016.418673
10.500000,0.500000,815.000000,-940.749649
10.500000,0.500000,820.000000,-872.284975
10.500000,0.500000,825.000000,-810.546057
10.500000,0.500000,830.000000,-755.103531
10.500000,0.500000,835.000000,-705.550239
10.500000,0.500000,840.000000,-661.517093
10.500000,0.500000,845.000000,-622.689043
10.500000,0.500000,850.000000,-588.767616
10.500000,0.500000,855.000000,-559.478816
10.500000,0.500000,860.000000,-534.588902
10.500000,0.500000,865.000000,-513.924022
10.500000,0.500000,870.000000,-497.194939
10.500000,0.500000,875.000000,-484.344912
10.500000,0.500000,880.000000,-475.232282
10.500000,0.500000,885.000000,-469.658063
10.500000,0.500000,890.000000,-467.623071
10.500000,0.500000,895.000000,-469.021782
10.500000,0.500000,900.000000,-473.812356
10.500000,0.500000,905.000000,-481.961311
10.500000,0.500000,910.000000,-493.485712
10.500000,0.500000,915.000000,-508.375156
10.500000,0.500000,920.000000,-526.679724
10.500000,0.500000,925.000000,-548.446890
10.500000,0.500000,930.000000,-573.757873
10.500000,0.500000,935.000000,-602.686475
10.500000,0.500000,940.000000,-635.387049
10.500000,0.500000,945.000000,-671.932528
10.500000,0.500000,950.000000,-712.485740
10.500000,0.600000,800.000000,-1356.985743
10.500000,0.600000,805.000000,-1253.631152
10.500000,0.600000,810.000000,-1159.335695
10.500000,0.600000,815.000000,-1073.474876
10.500000,0.600000,820.000000,-995.468133
10.500000,0.600000,825.000000,-924.796705
10.500000,0.600000,830.000000,-860.995592
10.500000,0.600000,835.000000,-803.622693
10.500000,0.600000,840.000000,-752.276900
10.500000,0.600000,845.000000,-706.623309
10.500000,0.600000,850.000000,-666.314878
10.500000,0.600000,855.000000,-631.072724
10.500000,0.600000,860.000000,-600.632696
10.500000,0.600000,865.000000,-574.765106
10.500000,0.600000,870.000000,-553.270084
10.500000,0.600000,875.000000,-535.947871
10.500000,0.600000,880.000000,-522.673072
10.500000,0.600000,885.000000,-513.273616
10.500000,0.600000,890.000000,-507.660006
10.500000,0.600000,895.000000,-505.721225
10.500000,0.600000,900.000000,-507.478423
10.500000,0.600000,905.000000,-512.779942
10.500000,0.600000,910.000000,-521.705226
10.500000,0.600000,915.000000,-534.185245
10.500000,0.600000,920.000000,-550.263465
10.500000,0.600000,925.000000,-569.950113
10.500000,0.600000,930.000000,-593.363783
10.500000,0.600000,935.000000,-620.561192
10.500000,0.600000,940.000000,-651.632240
10.500000,0.600000,945.000000,-686.702453
10.500000,0.600000,950.000000,-725.918698
10.500000,0.700000,800.000000,-1512.001049
10.500000,0.700000,805.000000,-1398.003700
10.500000,0.700000,810.000000,-1293.739385
10.500000,0.700000,815.000000,-1198.537779
10.500000,0.700000,820.000000,-1111.775657
10.500000,0.700000,825.000000,-1032.907382
10.500000,0.700000,830.000000,-961.403527
10.500000,0.700000,835.000000,-896.821283
10.500000,0.700000,840.000000,-838.728260
10.500000,0.700000,845.000000,-786.740612
10.500000,0.700000,850.000000,-740.509902
10.500000,0.700000,855.000000,-699.727816
10.500000,0.700000,860.000000,-664.108951
10.500000,0.700000,865.000000,-633.422772
10.500000,0.700000,870.000000,-607.385003
10.500000,0.700000,875.000000,-585.853721
10.500000,0.700000,880.000000,-568.667684
10.500000,0.700000,885.000000,-555.585936
10.500000,0.700000,890.000000,-546.610652
10.500000,0.700000,895.000000,-541.547539
10.500000,0.700000,900.000000,-540.327419
10.500000,0.700000,905.000000,-542.942563
10.500000,0.700000,910.000000,-549.319991
10.500000,0.700000,915.000000,-559.480499
10.500000,0.700000,920.000000,-573.405370
10.500000,0.700000,925.000000,-591.151026
10.500000,0.700000,930.000000,-612.694458
10.500000,0.700000,935.000000,-638.189899
10.500000,0.700000,940.000000,-667.702223
10.500000,0.700000,945.000000,-701.329929
10.500000,0.700000,950.000000,-739.226438
10.500000,0.800000,800.000000,-1658.347312
10.500000,0.800000,805.000000,-1534.492412
10.500000,0.800000,810.000000,-1420.991067
10.500000,0.800000,815.000000,-1317.129627
10.500000,0.800000,820.000000,-1222.244541
10.500000,0.800000,825.000000,-1135.755951
10.500000,0.800000,830.000000,-1057.100274
10.500000,0.800000,835.000000,-985.807631
10.500000,0.800000,840.000000,-921.418074
10.500000,0.800000,845.000000,-863.523492
10.500000,0.800000,850.000000,-811.753144
10.500000,0.800000,855.000000,-765.778773
10.500000,0.800000,860.000000,-725.295693
10.500000,0.800000,865.000000,-690.041801
10.500000,0.800000,870.000000,-659.757392
10.500000,0.800000,875.000000,-634.244212
10.500000,0.800000,880.000000,-613.306593
10.500000,0.800000,885.000000,-596.786922
10.500000,0.800000,890.000000,-584.553951
10.500000,0.800000,895.000000,-576.477853
10.500000,0.800000,900.000000,-572.469692
10.500000,0.800000,905.000000,-572.484521
10.500000,0.800000,910.000000,-576.469695
10.500000,0.800000,915.000000,-584.347696
10.500000,0.800000,920.000000,-596.194440
10.500000,0.800000,925.000000,-611.988266
10.500000,0.800000,930.000000,-631.771621
10.500000,0.800000,935.000000,-655.620005
10.500000,0.800000,940.000000,-683.598248
10.500000,0.800000,945.000000,-715.835167
10.500000,0.800000,950.000000,-752.403479
10.500000,0.900000,800.000000,-1797.334270
10.500000,0.900000,805.000000,-1664.263061
10.500000,0.900000,810.000000,-1542.123833
10.500000,0.900000,815.000000,-1430.161690
10.500000,0.900000,820.000000,-1327.674678
10.500000,0.900000,825.000000,-1234.050357
10.500000,0.900000,830.000000,-1148.692643
10.500000,0.900000,835.000000,-1071.105967
10.500000,0.900000,840.000000,-1000.804277
10.500000,0.900000,845.000000,-937.356567
10.500000,0.900000,850.000000,-880.371158
10.500000,0.900000,855.000000,-829.501201
10.500000,0.900000,860.000000,-784.424123
10.500000,0.900000,865.000000,-744.878907
10.500000,0.900000,870.000000,-710.559185
10.500000,0.900000,875.000000,-681.255571
10.500000,0.900000,880.000000,-656.764138
10.500000,0.900000,885.000000,-636.969454
10.500000,0.900000,890.000000,-621.598371
10.500000,0.900000,895.000000,-610.643958
10.500000,0.900000,900.000000,-603.972002
10.500000,0.900000,905.000000,-601.434550
10.500000,0.900000,910.000000,-603.073163
10.500000,0.900000,915.000000,-608.799776
10.500000,0.900000,920.000000,-618.627247
10.500000,0.900000,925.000000,-632.540133
10.500000,0.900000,930.000000,-650.596086
10.500000,0.900000,935.000000,-672.820140
10.500000,0.900000,940.000000,-699.311652
10.500000,0.900000,945.000000,-730.141066
10.500000,0.900000,950.000000,-765.452912
10.500000,1.000000,800.000000,-1929.971726
10.500000,1.000000,805.000000,-1788.219634
10.500000,1.000000,810.000000,-1657.943687
10.500000,1.000000,815.000000,-1538.349534
10.500000,1.000000,820.000000,-1428.698456
10.500000,1.000000,825.000000,-1328.346812
10.500000,1.000000,830.000000,-1236.667389
10.500000,1.000000,835.000000,-1153.140045
10.500000,1.000000,840.000000,-1077.253774
10.500000,1.000000,845.000000,-1008.555749
10.500000,1.000000,850.000000,-946.634391
10.500000,1.000000,855.000000,-891.125270
10.500000,1.000000,860.000000,-841.688966
10.500000,1.000000,865.000000,-798.027556
10.500000,1.000000,870.000000,-759.879606
10.500000,1.000000,875.000000,-726.964677
10.500000,1.000000,880.000000,-699.106664
10.500000,1.000000,885.000000,-676.105531
10.500000,1.000000,890.000000,-657.804903
10.500000,1.000000,895.000000,-644.097954
10.500000,1.000000,900.000000,-634.809239
10.500000,1.000000,905.000000,-629.847779
10.500000,1.000000,910.000000,-629.230273
10.500000,1.000000,915.000000,-632.851800
10.500000,1.000000,920.000000,-640.719671
10.500000,1.000000,925.000000,-652.807505
10.500000,1.000000,930.000000,-669.170925
10.500000,1.000000,935.000000,-689.827799
10.500000,1.000000,940.000000,-714.874890
10.500000,1.000000,945.000000,-744.341316
10.500000,1.000000,950.000000,-778.392942
10.500000,1.100000,800.000000,-2057.057720
10.500000,1.100000,805.000000,-1907.079914
10.500000,1.100000,810.000000,-1769.093837
10.500000,1.100000,815.000000,-1642.267250
10.500000,1.100000,820.000000,-1525.826107
10.500000,1.100000,825.000000,-1419.096758
10.500000,1.100000,830.000000,-1321.422047
10.500000,1.100000,835.000000,-1232.258191
10.500000,1.100000,840.000000,-1151.070199
10.500000,1.100000,845.000000,-1077.384291
10.500000,1.100000,850.000000,-1010.769817
10.500000,1.100000,855.000000,-950.845557
10.500000,1.100000,860.000000,-897.265037
10.500000,1.100000,865.000000,-849.691623
10.500000,1.100000,870.000000,-807.857515
10.500000,1.100000,875.000000,-771.504296
10.500000,1.100000,880.000000,-740.404949
10.500000,1.100000,885.000000,-714.378117
10.500000,1.100000,890.000000,-693.215305
10.500000,1.100000,895.000000,-676.805286
10.500000,1.100000,900.000000,-665.023964
10.500000,1.100000,905.000000,-657.761916
10.500000,1.100000,910.000000,-654.935901
10.500000,1.100000,915.000000,-656.529366
10.500000,1.100000,920.000000,-662.478674
10.500000,1.100000,925.000000,-672.801479
10.500000,1.100000,930.000000,-687.511305
10.500000,1.100000,935.000000,-706.631307
10.500000,1.100000,940.000000,-730.250397
10.500000,1.100000,945.000000,-758.378112
10.500000,1.100000,950.000000,-791.206712
10.500000,1.200000,800.000000,-2179.235930
10.500000,1.200000,805.000000,-2021.425127
10.500000,1.200000,810.000000,-1876.097315
10.500000,1.200000,815.000000,-1742.383770
10.500000,1.200000,820.000000,-1619.476389
10.500000,1.200000,825.000000,-1506.672576
10.500000,1.200000,830.000000,-1403.286272
10.500000,1.200000,835.000000,-1308.750867
10.500000,1.200000,840.000000,-1222.508214
10.500000,1.200000,845.000000,-1144.064311
10.500000,1.200000,850.000000,-1072.970132
10.500000,1.200000,855.000000,-1008.828306
10.500000,1.200000,860.000000,-951.277511
10.500000,1.200000,865.000000,-899.980472
10.500000,1.200000,870.000000,-854.613061
10.500000,1.200000,875.000000,-814.951761
10.500000,1.200000,880.000000,-780.739779
10.500000,1.200000,885.000000,-751.791207
10.500000,1.200000,890.000000,-727.878101
10.500000,1.200000,895.000000,-708.927015
10.500000,1.200000,900.000000,-694.697385
10.500000,1.200000,905.000000,-685.154918
10.500000,1.200000,910.000000,-680.223323
10.500000,1.200000,915.000000,-679.830284
10.500000,1.200000,920.000000,-683.935938
10.500000,1.200000,925.000000,-692.527975
10.500000,1.200000,930.000000,-705.619253
10.500000,1.200000,935.000000,-723.236944
10.500000,1.200000,940.000000,-745.464792
10.500000,1.200000,945.000000,-772.297368
10.500000,1.200000,950.000000,-803.912557
10.500000,1.300000,800.000000,-2297.034497
10.500000,1.300000,805.000000,-2131.733759
10.500000,1.300000,810.000000,-1979.386245
10.500000,1.300000,815.000000,-1839.088004
10.500000,1.300000,820.000000,-1709.998024
10.500000,1.300000,825.000000,-1591.385713
10.500000,1.300000,830.000000,-1482.537040
10.500000,1.300000,835.000000,-1382.863293
10.500000,1.300000,840.000000,-1291.783896
10.500000,1.300000,845.000000,-1208.785267
10.500000,1.300000,850.000000,-1133.400592
10.500000,1.300000,855.000000,-1065.216889
10.500000,1.300000,860.000000,-1003.858513
10.500000,1.300000,865.000000,-948.956581
10.500000,1.300000,870.000000,-900.226144
10.500000,1.300000,875.000000,-857.383598
10.500000,1.300000,880.000000,-820.190645
10.500000,1.300000,885.000000,-788.396217
10.500000,1.300000,890.000000,-761.883165
10.500000,1.300000,895.000000,-740.368538
10.500000,1.300000,900.000000,-723.836383
10.500000,1.300000,905.000000,-712.108385
10.500000,1.300000,910.000000,-705.112601
10.500000,1.300000,915.000000,-702.797584
10.500000,1.300000,920.000000,-705.122652
10.500000,1.300000,925.000000,-712.028139
10.500000,1.300000,930.000000,-723.509479
10.500000,1.300000,935.000000,-739.658191
10.500000,1.300000,940.000000,-760.523036
10.500000,1.300000,945.000000,-786.087023
10.500000,1.300000,950.000000,-816.535476
10.500000,1.400000,800.000000,-2410.893129
10.500000,1.400000,805.000000,-2238.405318
10.500000,1.400000,810.000000,-2079.343735
10.500000,1.400000,815.000000,-1932.706749
10.500000,1.400000,820.000000,-1797.685074
10.500000,1.400000,825.000000,-1673.499785
10.500000,1.400000,830.000000,-1559.409728
10.500000,1.400000,835.000000,-1454.804737
10.500000,1.400000,840.000000,-1359.082463
10.500000,1.400000,845.000000,-1271.710309
10.500000,1.400000,850.000000,-1192.204192
10.500000,1.400000,855.000000,-1120.135984
10.500000,1.400000,860.000000,-1055.116158
10.500000,1.400000,865.000000,-996.762957
10.500000,1.400000,870.000000,-944.803753
10.500000,1.400000,875.000000,-898.867472
10.500000,1.400000,880.000000,-858.771743
10.500000,1.400000,885.000000,-824.272947
10.500000,1.400000,890.000000,-795.193372
10.500000,1.400000,895.000000,-771.271203
10.500000,1.400000,900.000000,-752.468832
10.500000,1.400000,905.000000,-738.611055
10.500000,1.400000,910.000000,-729.615855
10.500000,1.400000,915.000000,-725.449453
10.500000,1.400000,920.000000,-725.963881
10.500000,1.400000,925.000000,-731.224791
10.500000,1.400000,930.000000,-741.202767
10.500000,1.400000,935.000000,-755.920263
10.500000,1.400000,940.000000,-775.400950
10.500000,1.400000,945.000000,-799.728624
10.500000,1.400000,950.000000,-829.002467
11.000000,0.400000,800.000000,-1129.719820
11.000000,0.400000,805.000000,-1049.372895
11.000000,0.400000,810.000000,-976.671183
11.000000,0.400000,815.000000,-911.088914
11.000000,0.400000,820.000000,-852.126081
11.000000,0.400000,825.000000,-799.335512
11.000000,0.400000,830.000000,-752.316825
11.000000,0.400000,835.000000,-710.690105
11.000000,0.400000,840.000000,-674.111617
11.000000,0.400000,845.000000,-642.290741
11.000000,0.400000,850.000000,-614.952503
11.000000,0.400000,855.000000,-591.845294
11.000000,0.400000,860.000000,-572.757664
11.000000,0.400000,865.000000,-557.504586
11.000000,0.400000,870.000000,-545.926030
11.000000,0.400000,875.000000,-537.861646
11.000000,0.400000,880.000000,-533.225286
11.000000,0.400000,885.000000,-531.906590
11.000000,0.400000,890.000000,-533.832882
11.000000,0.400000,895.000000,-538.976828
11.000000,0.400000,900.000000,-547.313669
11.000000,0.400000,905.000000,-558.782891
11.000000,0.400000,910.000000,-573.444476
11.000000,0.400000,915.000000,-591.340118
11.000000,0.400000,920.000000,-612.493724
11.000000,0.400000,925.000000,-637.014737
11.000000,0.400000,930.000000,-664.915390
11.000000,0.400000,935.000000,-696.377793
11.000000,0.400000,940.000000,-731.505941
11.000000,0.400000,945.000000,-770.444559
11.000000,0.400000,950.000000,-813.382958
11.000000,0.500000,800.000000,-1311.668205
11.000000,0.500000,805.000000,-1218.048400
11.000000,0.500000,810.000000,-1132.953696
11.000000,0.500000,815.000000,-1055.792113
11.000000,0.500000,820.000000,-986.012357
11.000000,0.500000,825.000000,-923.121735
11.000000,0.500000,830.000000,-866.678978
11.000000,0.500000,835.000000,-816.263746
11.000000,0.500000,840.000000,-771.494776
11.000000,0.500000,845.000000,-732.049106
11.000000,0.500000,850.000000,-697.618978
11.000000,0.500000,855.000000,-667.920867
11.000000,0.500000,860.000000,-642.714508
11.000000,0.500000,865.000000,-621.819570
11.000000,0.500000,870.000000,-604.942556
11.000000,0.500000,875.000000,-592.021391
11.000000,0.500000,880.000000,-582.877225
11.000000,0.500000,885.000000,-577.431133
11.000000,0.500000,890.000000,-575.497679
11.000000,0.500000,895.000000,-577.102650
11.000000,0.500000,900.000000,-582.156843
11.000000,0.500000,905.000000,-590.636834
11.000000,0.500000,910.000000,-602.565306
11.000000,0.500000,915.000000,-617.884741
11.000000,0.500000,920.000000,-636.731724
11.000000,0.500000,925.000000,-659.052873
11.000000,0.500000,930.000000,-685.010819
11.000000,0.500000,935.000000,-714.649488
11.000000,0.500000,940.000000,-748.118302
11.000000,0.500000,945.000000,-785.530156
11.000000,0.500000,950.000000,-827.048850
11.000000,0.600000,800.000000,-1480.603571
11.000000,0.600000,805.000000,-1375.043521
11.000000,0.600000,810.000000,-1278.774878
11.000000,0.600000,815.000000,-1191.155575
11.000000,0.600000,820.000000,-1111.587578
11.000000,0.600000,825.000000,-1039.537063
11.000000,0.600000,830.000000,-974.526214
11.000000,0.600000,835.000000,-916.098815
11.000000,0.600000,840.000000,-863.840670
11.000000,0.600000,845.000000,-817.409218
11.000000,0.600000,850.000000,-776.443887
11.000000,0.600000,855.000000,-740.658714
11.000000,0.600000,860.000000,-709.781029
11.000000,0.600000,865.000000,-683.574210
11.000000,0.600000,870.000000,-661.822291
11.000000,0.600000,875.000000,-644.341893
11.000000,0.600000,880.000000,-630.993851
11.000000,0.600000,885.000000,-621.561244
11.000000,0.600000,890.000000,-616.050412
11.000000,0.600000,895.000000,-614.255498
11.000000,0.600000,900.000000,-616.225004
11.000000,0.600000,905.000000,-621.807265
11.000000,0.600000,910.000000,-631.080909
11.000000,0.600000,915.000000,-643.956160
11.000000,0.600000,920.000000,-660.517154
11.000000,0.600000,925.000000,-680.782515
11.000000,0.600000,930.000000,-704.811957
11.000000,0.600000,935.000000,-732.692290
11.000000,0.600000,940.000000,-764.537790
11.000000,0.600000,945.000000,-800.456795
11.000000,0.600000,950.000000,-840.622902
11.000000,0.700000,800.000000,-1638.980954
11.000000,0.700000,805.000000,-1522.493512
11.000000,0.700000,810.000000,-1415.990694
11.000000,0.700000,815.000000,-1318.783614
11.000000,0.700000,820.000000,-1230.230638
11.000000,0.700000,825.000000,-1149.771414
11.000000,0.700000,830.000000,-1076.859366
11.000000,0.700000,835.000000,-1011.040346
11.000000,0.700000,840.000000,-951.868081
11.000000,0.700000,845.000000,-898.946964
11.000000,0.700000,850.000000,-851.917691
11.000000,0.700000,855.000000,-810.463038
11.000000,0.700000,860.000000,-774.288372
11.000000,0.700000,865.000000,-743.149058
11.000000,0.700000,870.000000,-716.807246
11.000000,0.700000,875.000000,-694.992288
11.000000,0.700000,880.000000,-677.646850
11.000000,0.700000,885.000000,-664.494223
11.000000,0.700000,890.000000,-655.491977
11.000000,0.700000,895.000000,-650.546023
11.000000,0.700000,900.000000,-649.479610
11.000000,0.700000,905.000000,-652.331618
11.000000,0.700000,910.000000,-659.023531
11.000000,0.700000,915.000000,-669.582679
11.000000,0.700000,920.000000,-683.937331
11.000000,0.700000,925.000000,-702.183938
11.000000,0.700000,930.000000,-724.349629
11.000000,0.700000,935.000000,-750.510491
11.000000,0.700000,940.000000,-780.796296
11.000000,0.700000,945.000000,-815.224693
11.000000,0.700000,950.000000,-854.030739
11.000000,0.800000,800.000000,-1788.562633
11.000000,0.800000,805.000000,-1661.952881
11.000000,0.800000,810.000000,-1545.965684
11.000000,0.800000,815.000000,-1439.867896
11.000000,0.800000,820.000000,-1342.976689
11.000000,0.800000,825.000000,-1254.696743
11.000000,0.800000,830.000000,-1174.446571
11.000000,0.800000,835.000000,-1101.744330
11.000000,0.800000,840.000000,-1036.115532
11.000000,0.800000,845.000000,-977.139690
11.000000,0.800000,850.000000,-924.434596
11.000000,0.800000,855.000000,-877.662504
11.000000,0.800000,860.000000,-836.508900
11.000000,0.800000,865.000000,-800.699480
11.000000,0.800000,870.000000,-769.982727
11.000000,0.800000,875.000000,-744.133385
11.000000,0.800000,880.000000,-722.987478
11.000000,0.800000,885.000000,-706.289403
11.000000,0.800000,890.000000,-693.998989
11.000000,0.800000,895.000000,-685.941886
11.000000,0.800000,900.000000,-682.051755
11.000000,0.800000,905.000000,-682.255086
11.000000,0.800000,910.000000,-686.482828
11.000000,0.800000,915.000000,-694.725026
11.000000,0.800000,920.000000,-706.989186
11.000000,0.800000,925.000000,-723.270467
11.000000,0.800000,930.000000,-743.622764
11.000000,0.800000,935.000000,-768.117463
11.000000,0.800000,940.000000,-796.849837
11.000000,0.800000,945.000000,-829.873097
11.000000,0.800000,950.000000,-867.330090
11.000000,0.900000,800.000000,-1930.669174
11.000000,0.900000,805.000000,-1794.595059
11.000000,0.900000,810.000000,-1669.737869
11.000000,0.900000,815.000000,-1555.322315
11.000000,0.900000,820.000000,-1450.626341
11.000000,0.900000,825.000000,-1355.021343
11.000000,0.900000,830.000000,-1267.892632
11.000000,0.900000,835.000000,-1188.732106
11.000000,0.900000,840.000000,-1117.038579
11.000000,0.900000,845.000000,-1052.368132
11.000000,0.900000,850.000000,-994.317095
11.000000,0.900000,855.000000,-942.528633
11.000000,0.900000,860.000000,-896.669840
11.000000,0.900000,865.000000,-856.463341
11.000000,0.900000,870.000000,-821.597527
11.000000,0.900000,875.000000,-791.880141
11.000000,0.900000,880.000000,-767.086167
11.000000,0.900000,885.000000,-747.050750
11.000000,0.900000,890.000000,-731.615467
11.000000,0.900000,895.000000,-720.597905
11.000000,0.900000,900.000000,-713.952843
11.000000,0.900000,905.000000,-711.586258
11.000000,0.900000,910.000000,-713.440356
11.000000,0.900000,915.000000,-719.506899
11.000000,0.900000,920.000000,-729.684513
11.000000,0.900000,925.000000,-744.094061
11.000000,0.900000,930.000000,-762.651951
11.000000,0.900000,935.000000,-785.505345
11.000000,0.900000,940.000000,-812.708053
11.000000,0.900000,945.000000,-844.330950
11.000000,0.900000,950.000000,-880.539185
11.000000,1.000000,800.000000,-2066.320454
11.000000,1.000000,805.000000,-1921.331629
11.000000,1.000000,810.000000,-1788.118677
11.000000,1.000000,815.000000,-1665.865985
11.000000,1.000000,820.000000,-1553.813937
11.000000,1.000000,825.000000,-1451.302059
11.000000,1.000000,830.000000,-1357.683864
11.000000,1.000000,835.000000,-1272.426144
11.000000,1.000000,840.000000,-1195.002218
11.000000,1.000000,845.000000,-1124.945849
11.000000,1.000000,850.000000,-1061.833002
11.000000,1.000000,855.000000,-1005.288819
11.000000,1.000000,860.000000,-954.963110
11.000000,1.000000,865.000000,-910.549095
11.000000,1.000000,870.000000,-871.761844
11.000000,1.000000,875.000000,-838.359185
11.000000,1.000000,880.000000,-810.113696
11.000000,1.000000,885.000000,-786.829599
11.000000,1.000000,890.000000,-768.331285
11.000000,1.000000,895.000000,-754.507367
11.000000,1.000000,900.000000,-745.254533
11.000000,1.000000,905.000000,-740.396047
11.000000,1.000000,910.000000,-739.950753
11.000000,1.000000,915.000000,-743.866718
11.000000,1.000000,920.000000,-752.048144
11.000000,1.000000,925.000000,-764.583541
11.000000,1.000000,930.000000,-781.447214
11.000000,1.000000,935.000000,-802.702504
11.000000,1.000000,940.000000,-828.413014
11.000000,1.000000,945.000000,-858.676451
11.000000,1.000000,950.000000,-893.606520
11.000000,1.100000,800.000000,-2196.323586
11.000000,1.100000,805.000000,-2042.887487
11.000000,1.100000,810.000000,-1901.756683
11.000000,1.100000,815.000000,-1772.076835
11.000000,1.100000,820.000000,-1653.052223
11.000000,1.100000,825.000000,-1543.991719
11.000000,1.100000,830.000000,-1444.218250
11.000000,1.100000,835.000000,-1353.174464
11.000000,1.100000,840.000000,-1270.309175
11.000000,1.100000,845.000000,-1195.134735
11.000000,1.100000,850.000000,-1127.207611
11.000000,1.100000,855.000000,-1066.135759
11.000000,1.100000,860.000000,-1011.562683
11.000000,1.100000,865.000000,-963.137506
11.000000,1.100000,870.000000,-920.589070
11.000000,1.100000,875.000000,-883.652126
11.000000,1.100000,880.000000,-852.083821
11.000000,1.100000,885.000000,-825.694344
11.000000,1.100000,890.000000,-804.300465
11.000000,1.100000,895.000000,-787.768679
11.000000,1.100000,900.000000,-775.909116
11.000000,1.100000,905.000000,-768.678158
11.000000,1.100000,910.000000,-766.036032
11.000000,1.100000,915.000000,-767.827570
11.000000,1.100000,920.000000,-774.093902
11.000000,1.100000,925.000000,-784.816060
11.000000,1.100000,930.000000,-800.013557
11.000000,1.100000,935.000000,-819.707317
11.000000,1.100000,940.000000,-843.965243
11.000000,1.100000,945.000000,-872.877524
11.000000,1.100000,950.000000,-906.539148
11.000000,1.200000,800.000000,-2321.330318
11.000000,1.200000,805.000000,-2159.850349
11.000000,1.200000,810.000000,-2011.179996
11.000000,1.200000,815.000000,-1874.427613
11.000000,1.200000,820.000000,-1748.762671
11.000000,1.200000,825.000000,-1633.464464
11.000000,1.200000,830.000000,-1527.826395
11.000000,1.200000,835.000000,-1431.267797
11.000000,1.200000,840.000000,-1343.213833
11.000000,1.200000,845.000000,-1263.156202
11.000000,1.200000,850.000000,-1190.632590
11.000000,1.200000,855.000000,-1125.234438
11.000000,1.200000,860.000000,-1066.590053
11.000000,1.200000,865.000000,-1014.338620
11.000000,1.200000,870.000000,-968.205240
11.000000,1.200000,875.000000,-927.852950
11.000000,1.200000,880.000000,-893.099995
11.000000,1.200000,885.000000,-863.728854
11.000000,1.200000,890.000000,-839.507776
11.000000,1.200000,895.000000,-820.319512
11.000000,1.200000,900.000000,-806.025714
11.000000,1.200000,905.000000,-796.500539
11.000000,1.200000,910.000000,-791.657033
11.000000,1.200000,915.000000,-791.442299
11.000000,1.200000,920.000000,-795.836717
11.000000,1.200000,925.000000,-804.798597
11.000000,1.200000,930.000000,-818.349992
11.000000,1.200000,935.000000,-836.516479
11.000000,1.200000,940.000000,-859.375577
11.000000,1.200000,945.000000,-886.937613
11.000000,1.200000,950.000000,-919.381507
11.000000,1.300000,800.000000,-2441.875935
11.000000,1.300000,805.000000,-2272.704561
11.000000,1.300000,810.000000,-2116.825434
11.000000,1.300000,815.000000,-1973.310881
11.000000,1.300000,820.000000,-1841.296728
11.000000,1.300000,825.000000,-1720.033654
11.000000,1.300000,830.000000,-1608.786487
11.000000,1.300000,835.000000,-1506.951984
11.000000,1.300000,840.000000,-1413.932400
11.000000,1.300000,845.000000,-1329.199437
11.000000,1.300000,850.000000,-1252.272612
11.000000,1.300000,855.000000,-1182.727414
11.000000,1.300000,860.000000,-1120.177499
11.000000,1.300000,865.000000,-1064.268354
11.000000,1.300000,870.000000,-1014.631252
11.000000,1.300000,875.000000,-971.037533
11.000000,1.300000,880.000000,-933.216386
11.000000,1.300000,885.000000,-900.986093
11.000000,1.300000,890.000000,-874.027564
11.000000,1.300000,895.000000,-852.296623
11.000000,1.300000,900.000000,-835.602921
11.000000,1.300000,905.000000,-823.829339
11.000000,1.300000,910.000000,-816.894452
11.000000,1.300000,915.000000,-814.753167
11.000000,1.300000,920.000000,-817.278250
11.000000,1.300000,925.000000,-824.514942
11.000000,1.300000,930.000000,-836.471685
11.000000,1.300000,935.000000,-853.143593
11.000000,1.300000,940.000000,-874.582638
11.000000,1.300000,945.000000,-900.870944
11.000000,1.300000,950.000000,-932.137072
11.000000,1.400000,800.000000,-2558.406463
11.000000,1.400000,805.000000,-2381.854889
11.000000,1.400000,810.000000,-2219.059202
11.000000,1.400000,815.000000,-2069.056858
11.000000,1.400000,820.000000,-1930.951094
11.000000,1.400000,825.000000,-1803.964856
11.000000,1.400000,830.000000,-1687.335249
11.000000,1.400000,835.000000,-1580.437115
11.000000,1.400000,840.000000,-1482.650474
11.000000,1.400000,845.000000,-1393.427608
11.000000,1.400000,850.000000,-1312.270398
11.000000,1.400000,855.000000,-1238.738861
11.000000,1.400000,860.000000,-1172.432467
11.000000,1.400000,865.000000,-1112.955676
11.000000,1.400000,870.000000,-1060.004927
11.000000,1.400000,875.000000,-1013.312144
11.000000,1.400000,880.000000,-972.494984
11.000000,1.400000,885.000000,-937.435797
11.000000,1.400000,890.000000,-907.903968
11.000000,1.400000,895.000000,-883.702681
11.000000,1.400000,900.000000,-864.683413
11.000000,1.400000,905.000000,-850.749846
11.000000,1.400000,910.000000,-841.788677
11.000000,1.400000,915.000000,-837.680313
11.000000,1.400000,920.000000,-838.436349
11.000000,1.400000,925.000000,-844.004423
11.000000,1.400000,930.000000,-854.377977
11.000000,1.400000,935.000000,-869.586335
11.000000,1.400000,940.000000,-889.674072
11.000000,1.400000,945.000000,-914.698177
11.000000,1.400000,950.000000,-944.739089
11.500000,0.400000,800.000000,-1245.450792
11.500000,0.400000,805.000000,-1163.612549
11.500000,0.400000,810.000000,-1089.598167
11.500000,0.400000,815.000000,-1022.868122
11.500000,0.400000,820.000000,-962.907504
11.500000,0.400000,825.000000,-909.256484
11.500000,0.400000,830.000000,-861.504175
11.500000,0.400000,835.000000,-819.258921
11.500000,0.400000,840.000000,-782.166236
11.500000,0.400000,845.000000,-749.928945
11.500000,0.400000,850.000000,-722.264178
11.500000,0.400000,855.000000,-698.912186
11.500000,0.400000,860.000000,-679.656325
11.500000,0.400000,865.000000,-664.306524
11.500000,0.400000,870.000000,-652.699320
11.500000,0.400000,875.000000,-644.672265
11.500000,0.400000,880.000000,-640.121464
11.500000,0.400000,885.000000,-638.965102
11.500000,0.400000,890.000000,-641.129194
11.500000,0.400000,895.000000,-646.509574
11.500000,0.400000,900.000000,-655.175058
11.500000,0.400000,905.000000,-667.013408
11.500000,0.400000,910.000000,-682.121808
11.500000,0.400000,915.000000,-700.505547
11.500000,0.400000,920.000000,-722.217662
11.500000,0.400000,925.000000,-747.327127
11.500000,0.400000,930.000000,-775.928204
11.500000,0.400000,935.000000,-808.140246
11.500000,0.400000,940.000000,-844.076884
11.500000,0.400000,945.000000,-883.912768
11.500000,0.400000,950.000000,-927.791739
11.500000,0.500000,800.000000,-1430.906213
11.500000,0.500000,805.000000,-1335.464806
11.500000,0.500000,810.000000,-1248.753498
11.500000,0.500000,815.000000,-1170.164115
11.500000,0.500000,820.000000,-1099.129214
11.500000,0.500000,825.000000,-1035.142259
11.500000,0.500000,830.000000,-977.750315
11.500000,0.500000,835.000000,-926.520105
11.500000,0.500000,840.000000,-881.058432
11.500000,0.500000,845.000000,-841.034641
11.500000,0.500000,850.000000,-806.131914
11.500000,0.500000,855.000000,-776.057427
11.500000,0.500000,860.000000,-750.564600
11.500000,0.500000,865.000000,-729.437302
11.500000,0.500000,870.000000,-712.476128
11.500000,0.500000,875.000000,-699.497921
11.500000,0.500000,880.000000,-690.379847
11.500000,0.500000,885.000000,-684.983663
11.500000,0.500000,890.000000,-683.232061
11.500000,0.500000,895.000000,-685.073270
11.500000,0.500000,900.000000,-690.376553
11.500000,0.500000,905.000000,-699.194457
11.500000,0.500000,910.000000,-711.508553
11.500000,0.500000,915.000000,-727.336093
11.500000,0.500000,920.000000,-746.655046
11.500000,0.500000,925.000000,-769.615124
11.500000,0.500000,930.000000,-796.201970
11.500000,0.500000,935.000000,-826.574019
11.500000,0.500000,940.000000,-860.824551
11.500000,0.500000,945.000000,-899.122468
11.500000,0.500000,950.000000,-941.586833
11.500000,0.600000,800.000000,-1603.214245
11.500000,0.600000,805.000000,-1495.531522
11.500000,0.600000,810.000000,-1397.366805
11.500000,0.600000,815.000000,-1308.060767
11.500000,0.600000,820.000000,-1226.998191
11.500000,0.600000,825.000000,-1153.630457
11.500000,0.600000,830.000000,-1087.467176
11.500000,0.600000,835.000000,-1028.038262
11.500000,0.600000,840.000000,-974.916664
11.500000,0.600000,845.000000,-927.752380
11.500000,0.600000,850.000000,-886.171534
11.500000,0.600000,855.000000,-849.881293
11.500000,0.600000,860.000000,-818.600683
11.500000,0.600000,865.000000,-792.086550
11.500000,0.600000,870.000000,-770.115431
11.500000,0.600000,875.000000,-752.501395
11.500000,0.600000,880.000000,-739.065387
11.500000,0.600000,885.000000,-729.685009
11.500000,0.600000,890.000000,-724.236079
11.500000,0.600000,895.000000,-722.630908
11.500000,0.600000,900.000000,-724.807425
11.500000,0.600000,905.000000,-730.713282
11.500000,0.600000,910.000000,-740.315283
11.500000,0.600000,915.000000,-753.638098
11.500000,0.600000,920.000000,-770.720620
11.500000,0.600000,925.000000,-791.521197
11.500000,0.600000,930.000000,-816.192900
11.500000,0.600000,935.000000,-844.779502
11.500000,0.600000,940.000000,-877.392470
11.500000,0.600000,945.000000,-914.152716
11.500000,0.600000,950.000000,-955.230629
11.500000,0.700000,800.000000,-1764.836916
11.500000,0.700000,805.000000,-1645.948829
11.500000,0.700000,810.000000,-1537.291012
11.500000,0.700000,815.000000,-1438.156351
11.500000,0.700000,820.000000,-1347.885119
11.500000,0.700000,825.000000,-1265.902521
11.500000,0.700000,830.000000,-1191.645106
11.500000,0.700000,835.000000,-1124.647618
11.500000,0.700000,840.000000,-1064.450136
11.500000,0.700000,845.000000,-1010.645518
11.500000,0.700000,850.000000,-962.863807
11.500000,0.700000,855.000000,-920.779075
11.500000,0.700000,860.000000,-884.087663
11.500000,0.700000,865.000000,-852.537393
11.500000,0.700000,870.000000,-825.850011
11.500000,0.700000,875.000000,-803.883554
11.500000,0.700000,880.000000,-786.349050
11.500000,0.700000,885.000000,-773.171059
11.500000,0.700000,890.000000,-764.200589
11.500000,0.700000,895.000000,-759.329965
11.500000,0.700000,900.000000,-758.479889
11.500000,0.700000,905.000000,-761.575159
11.500000,0.700000,910.000000,-768.589948
11.500000,0.700000,915.000000,-779.514164
11.500000,0.700000,920.000000,-794.353102
11.500000,0.700000,925.000000,-813.135173
11.500000,0.700000,930.000000,-835.919231
11.500000,0.700000,935.000000,-862.752022
11.500000,0.700000,940.000000,-893.773599
11.500000,0.700000,945.000000,-929.080504
11.500000,0.700000,950.000000,-968.797856
11.500000,0.800000,800.000000,-1917.545441
11.500000,0.800000,805.000000,-1788.276298
11.500000,0.800000,810.000000,-1669.892503
11.500000,0.800000,815.000000,-1561.641778
11.500000,0.800000,820.000000,-1462.822356
11.500000,0.800000,825.000000,-1372.823747
11.500000,0.800000,830.000000,-1291.046847
11.500000,0.800000,835.000000,-1216.998088
11.500000,0.800000,840.000000,-1150.188683
11.500000,0.800000,845.000000,-1090.185999
11.500000,0.800000,850.000000,-1036.596571
11.500000,0.800000,855.000000,-989.073367
11.500000,0.800000,860.000000,-947.292250
11.500000,0.800000,865.000000,-910.970790
11.500000,0.800000,870.000000,-879.846433
11.500000,0.800000,875.000000,-853.695217
11.500000,0.800000,880.000000,-832.313737
11.500000,0.800000,885.000000,-815.529909
11.500000,0.800000,890.000000,-803.230023
11.500000,0.800000,895.000000,-795.201572
11.500000,0.800000,900.000000,-791.441563
11.500000,0.800000,905.000000,-791.838818
11.500000,0.800000,910.000000,-796.356505
11.500000,0.800000,915.000000,-804.967826
11.500000,0.800000,920.000000,-817.651261
11.500000,0.800000,925.000000,-834.450736
11.500000,0.800000,930.000000,-855.391199
11.500000,0.800000,935.000000,-880.524922
11.500000,0.800000,940.000000,-909.998739
11.500000,0.800000,945.000000,-943.813002
11.500000,0.800000,950.000000,-982.196074
11.500000,0.900000,800.000000,-2062.669851
11.500000,0.900000,805.000000,-1923.693807
11.500000,0.900000,810.000000,-1796.213168
11.500000,0.900000,815.000000,-1679.432648
11.500000,0.900000,820.000000,-1572.610449
11.500000,0.900000,825.000000,-1475.102117
11.500000,0.900000,830.000000,-1386.274661
11.500000,0.900000,835.000000,-1305.607696
11.500000,0.900000,840.000000,-1232.585157
11.500000,0.900000,845.000000,-1166.750439
11.500000,0.900000,850.000000,-1107.688098
11.500000,0.900000,855.000000,-1055.031514
11.500000,0.900000,860.000000,-1008.437652
11.500000,0.900000,865.000000,-967.611758
11.500000,0.900000,870.000000,-932.273270
11.500000,0.900000,875.000000,-902.162877
11.500000,0.900000,880.000000,-877.116161
11.500000,0.900000,885.000000,-856.854553
11.500000,0.900000,890.000000,-841.333299
11.500000,0.900000,895.000000,-830.304799
11.500000,0.900000,900.000000,-823.745266
11.500000,0.900000,905.000000,-821.548893
11.500000,0.900000,910.000000,-823.647450
11.500000,0.900000,915.000000,-830.006009
11.500000,0.900000,920.000000,-840.610792
11.500000,0.900000,925.000000,-855.464008
11.500000,0.900000,930.000000,-874.618398
11.500000,0.900000,935.000000,-898.092942
11.500000,0.900000,940.000000,-926.032786
11.500000,0.900000,945.000000,-958.453352
11.500000,0.900000,950.000000,-995.500851
11.500000,1.000000,800.000000,-2201.239047
11.500000,1.000000,805.000000,-2053.119592
11.500000,1.000000,810.000000,-1917.069019
11.500000,1.000000,815.000000,-1792.250883
11.500000,1.000000,820.000000,-1677.885056
11.500000,1.000000,825.000000,-1573.294561
11.500000,1.000000,830.000000,-1477.813967
11.500000,1.000000,835.000000,-1390.897260
11.500000,1.000000,840.000000,-1312.002345
11.500000,1.000000,845.000000,-1240.649816
11.500000,1.000000,850.000000,-1176.403399
11.500000,1.000000,855.000000,-1118.878018
11.500000,1.000000,860.000000,-1067.712909
11.500000,1.000000,865.000000,-1022.617175
11.500000,1.000000,870.000000,-983.224702
11.500000,1.000000,875.000000,-949.351058
11.500000,1.000000,880.000000,-920.776925
11.500000,1.000000,885.000000,-897.206988
11.500000,1.000000,890.000000,-878.598147
11.500000,1.000000,895.000000,-864.681721
11.500000,1.000000,900.000000,-855.436003
11.500000,1.000000,905.000000,-850.711278
11.500000,1.000000,910.000000,-850.475156
11.500000,1.000000,915.000000,-854.648483
11.500000,1.000000,920.000000,-863.254160
11.500000,1.000000,925.000000,-876.231029
11.500000,1.000000,930.000000,-893.595789
11.500000,1.000000,935.000000,-915.468437
11.500000,1.000000,940.000000,-941.901229
11.500000,1.000000,945.000000,-972.910093
11.500000,1.000000,950.000000,-1008.716313
11.500000,1.100000,800.000000,-2334.068399
11.500000,1.100000,805.000000,-2177.284914
11.500000,1.100000,810.000000,-2033.113327
11.500000,1.100000,815.000000,-1900.677651
11.500000,1.100000,820.000000,-1779.160908
11.500000,1.100000,825.000000,-1667.854839
11.500000,1.100000,830.000000,-1566.062806
11.500000,1.100000,835.000000,-1473.214158
11.500000,1.100000,840.000000,-1388.741795
11.500000,1.100000,845.000000,-1312.144449
11.500000,1.100000,850.000000,-1242.965927
11.500000,1.100000,855.000000,-1180.803569
11.500000,1.100000,860.000000,-1125.291058
11.500000,1.100000,865.000000,-1076.064272
11.500000,1.100000,870.000000,-1032.872662
11.500000,1.100000,875.000000,-995.378700
11.500000,1.100000,880.000000,-963.370043
11.500000,1.100000,885.000000,-936.658858
11.500000,1.100000,890.000000,-915.044037
11.500000,1.100000,895.000000,-898.377331
11.500000,1.100000,900.000000,-886.529320
11.500000,1.100000,905.000000,-879.388154
11.500000,1.100000,910.000000,-876.890084
11.500000,1.100000,915.000000,-878.930991
11.500000,1.100000,920.000000,-885.559561
11.500000,1.100000,925.000000,-896.671413
11.500000,1.100000,930.000000,-912.373966
11.500000,1.100000,935.000000,-932.641665
11.500000,1.100000,940.000000,-957.609098
11.500000,1.100000,945.000000,-987.253109
11.500000,1.100000,950.000000,-1021.795274
11.500000,1.200000,800.000000,-2461.817073
11.500000,1.200000,805.000000,-2296.783387
11.500000,1.200000,810.000000,-2144.878734
11.500000,1.200000,815.000000,-2005.189027
11.500000,1.200000,820.000000,-1876.861753
11.500000,1.200000,825.000000,-1759.158465
11.500000,1.200000,830.000000,-1651.352396
11.500000,1.200000,835.000000,-1552.849112
11.500000,1.200000,840.000000,-1463.057379
11.500000,1.200000,845.000000,-1381.454852
11.500000,1.200000,850.000000,-1307.566163
11.500000,1.200000,855.000000,-1240.971780
11.500000,1.200000,860.000000,-1181.289836
11.500000,1.200000,865.000000,-1128.142607
11.500000,1.200000,870.000000,-1081.238129
11.500000,1.200000,875.000000,-1040.288699
11.500000,1.200000,880.000000,-1005.071512
11.500000,1.200000,885.000000,-975.303589
11.500000,1.200000,890.000000,-950.795638
11.500000,1.200000,895.000000,-931.438087
11.500000,1.200000,900.000000,-917.065394
11.500000,1.200000,905.000000,-907.561545
11.500000,1.200000,910.000000,-902.836783
11.500000,1.200000,915.000000,-902.843455
11.500000,1.200000,920.000000,-907.539131
11.500000,1.200000,925.000000,-916.911820
11.500000,1.200000,930.000000,-930.904005
11.500000,1.200000,935.000000,-949.649735
11.500000,1.200000,940.000000,-973.139633
11.500000,1.200000,945.000000,-1001.474828
11.500000,1.200000,950.000000,-1034.744611
11.500000,1.300000,800.000000,-2585.026968
11.500000,1.300000,805.000000,-2412.104724
11.500000,1.300000,810.000000,-2252.806307
11.500000,1.300000,815.000000,-2106.180822
11.500000,1.300000,820.000000,-1971.341402
11.500000,1.300000,825.000000,-1847.520390
11.500000,1.300000,830.000000,-1733.961858
11.500000,1.300000,835.000000,-1630.048335
11.500000,1.300000,840.000000,-1535.165219
11.500000,1.300000,845.000000,-1448.769762
11.500000,1.300000,850.000000,-1370.368053
11.500000,1.300000,855.000000,-1299.524273
11.500000,1.300000,860.000000,-1235.841583
11.500000,1.300000,865.000000,-1178.941100
11.500000,1.300000,870.000000,-1128.475651
11.500000,1.300000,875.000000,-1084.189923
11.500000,1.300000,880.000000,-1045.799712
11.500000,1.300000,885.000000,-1013.120796
11.500000,1.300000,890.000000,-985.831415
11.500000,1.300000,895.000000,-963.908188
11.500000,1.300000,900.000000,-947.096893
11.500000,1.300000,905.000000,-935.272307
11.500000,1.300000,910.000000,-928.427709
11.500000,1.300000,915.000000,-926.432105
11.500000,1.300000,920.000000,-929.248523
11.500000,1.300000,925.000000,-936.846608
11.500000,1.300000,930.000000,-949.251768
11.500000,1.300000,935.000000,-966.449190
11.500000,1.300000,940.000000,-988.540211
11.500000,1.300000,945.000000,-1015.560487
11.500000,1.300000,950.000000,-1047.608340
11.500000,1.400000,800.000000,-2704.149997
11.500000,1.400000,805.000000,-2523.658554
11.500000,1.400000,810.000000,-2357.266174
11.500000,1.400000,815.000000,-2203.986338
11.500000,1.400000,820.000000,-2062.898889
11.500000,1.400000,825.000000,-1933.207855
11.500000,1.400000,830.000000,-1814.129011
11.500000,1.400000,835.000000,-1705.022527
11.500000,1.400000,840.000000,-1605.251111
11.500000,1.400000,845.000000,-1514.252208
11.500000,1.400000,850.000000,-1431.513913
11.500000,1.400000,855.000000,-1356.584617
11.500000,1.400000,860.000000,-1289.052994
11.500000,1.400000,865.000000,-1228.508826
11.500000,1.400000,870.000000,-1174.642718
11.500000,1.400000,875.000000,-1127.180118
11.500000,1.400000,880.000000,-1085.734834
11.500000,1.400000,885.000000,-1050.192677
11.500000,1.400000,890.000000,-1020.233480
11.500000,1.400000,895.000000,-995.744771
11.500000,1.400000,900.000000,-976.568608
11.500000,1.400000,905.000000,-962.557566
11.500000,1.400000,910.000000,-953.622278
11.500000,1.400000,915.000000,-949.679200
11.500000,1.400000,920.000000,-950.677406
11.500000,1.400000,925.000000,-956.575043
11.500000,1.400000,930.000000,-967.370952
11.500000,1.400000,935.000000,-983.089484
11.500000,1.400000,940.000000,-1003.788033
11.500000,1.400000,945.000000,-1029.507440
11.500000,1.400000,950.000000,-1060.363085
12.000000,0.400000,800.000000,-1360.500066
12.000000,0.400000,805.000000,-1277.232380
12.000000,0.400000,810.000000,-1201.962431
12.000000,0.400000,815.000000,-1134.137203
12.000000,0.400000,820.000000,-1073.227131
12.000000,0.400000,825.000000,-1018.759978
12.000000,0.400000,830.000000,-970.314585
12.000000,0.400000,835.000000,-927.487796
12.000000,0.400000,840.000000,-889.914607
12.000000,0.400000,845.000000,-857.291511
12.000000,0.400000,850.000000,-829.327966
12.000000,0.400000,855.000000,-805.756306
12.000000,0.400000,860.000000,-786.354896
12.000000,0.400000,865.000000,-770.929375
12.000000,0.400000,870.000000,-759.305449
12.000000,0.400000,875.000000,-751.334130
12.000000,0.400000,880.000000,-746.903068
12.000000,0.400000,885.000000,-745.928119
12.000000,0.400000,890.000000,-748.267248
12.000000,0.400000,895.000000,-753.952682
12.000000,0.400000,900.000000,-762.932391
12.000000,0.400000,905.000000,-775.183687
12.000000,0.400000,910.000000,-790.731516
12.000000,0.400000,915.000000,-809.616078
12.000000,0.400000,920.000000,-831.911676
12.000000,0.400000,925.000000,-857.615529
12.000000,0.400000,930.000000,-886.897217
12.000000,0.400000,935.000000,-919.844054
12.000000,0.400000,940.000000,-956.604089
12.000000,0.400000,945.000000,-997.311274
12.000000,0.400000,950.000000,-1042.172246
12.000000,0.500000,800.000000,-1549.332608
12.000000,0.500000,805.000000,-1452.139787
12.000000,0.500000,810.000000,-1363.876984
12.000000,0.500000,815.000000,-1283.920102
12.000000,0.500000,820.000000,-1211.685806
12.000000,0.500000,825.000000,-1146.653960
12.000000,0.500000,830.000000,-1088.360194
12.000000,0.500000,835.000000,-1036.358527
12.000000,0.500000,840.000000,-990.244053
12.000000,0.500000,845.000000,-949.678636
12.000000,0.500000,850.000000,-914.336618
12.000000,0.500000,855.000000,-883.916092
12.000000,0.500000,860.000000,-858.164371
12.000000,0.500000,865.000000,-836.859837
12.000000,0.500000,870.000000,-819.790970
12.000000,0.500000,875.000000,-806.796590
12.000000,0.500000,880.000000,-797.732202
12.000000,0.500000,885.000000,-792.426897
12.000000,0.500000,890.000000,-790.834405
12.000000,0.500000,895.000000,-792.876192
12.000000,0.500000,900.000000,-798.523865
12.000000,0.500000,905.000000,-807.677363
12.000000,0.500000,910.000000,-820.381794
12.000000,0.500000,915.000000,-836.684153
12.000000,0.500000,920.000000,-856.560568
12.000000,0.500000,925.000000,-880.069938
12.000000,0.500000,930.000000,-907.324569
12.000000,0.500000,935.000000,-938.428798
12.000000,0.500000,940.000000,-973.486248
12.000000,0.500000,945.000000,-1012.655273
12.000000,0.500000,950.000000,-1056.050820
12.000000,0.600000,800.000000,-1724.894908
12.000000,0.600000,805.000000,-1615.166822
12.000000,0.600000,810.000000,-1515.177993
12.000000,0.600000,815.000000,-1424.252123
12.000000,0.600000,820.000000,-1341.757088
12.000000,0.600000,825.000000,-1267.129719
12.000000,0.600000,830.000000,-1199.867285
12.000000,0.600000,835.000000,-1139.486061
12.000000,0.600000,840.000000,-1085.546367
12.000000,0.600000,845.000000,-1037.690955
12.000000,0.600000,850.000000,-995.532873
12.000000,0.600000,855.000000,-958.772615
12.000000,0.600000,860.000000,-927.121107
12.000000,0.600000,865.000000,-900.328948
12.000000,0.600000,870.000000,-878.198514
12.000000,0.600000,875.000000,-860.448272
12.000000,0.600000,880.000000,-846.972072
12.000000,0.600000,885.000000,-837.638520
12.000000,0.600000,890.000000,-832.318410
12.000000,0.600000,895.000000,-830.861258
12.000000,0.600000,900.000000,-833.275591
12.000000,0.600000,905.000000,-839.482655
12.000000,0.600000,910.000000,-849.497686
12.000000,0.600000,915.000000,-863.239526
12.000000,0.600000,920.000000,-880.798264
12.000000,0.600000,925.000000,-902.189947
12.000000,0.600000,930.000000,-927.486452
12.000000,0.600000,935.000000,-956.781208
12.000000,0.600000,940.000000,-990.208086
12.000000,0.600000,945.000000,-1027.828587
12.000000,0.600000,950.000000,-1069.819148
12.000000,0.700000,800.000000,-1889.653758
12.000000,0.700000,805.000000,-1768.448612
12.000000,0.700000,810.000000,-1657.713787
12.000000,0.700000,815.000000,-1556.724253
12.000000,0.700000,820.000000,-1464.802483
12.000000,0.700000,825.000000,-1381.345464
12.000000,0.700000,830.000000,-1305.815209
12.000000,0.700000,835.000000,-1237.693488
12.000000,0.700000,840.000000,-1176.509101
12.000000,0.700000,845.000000,-1121.879237
12.000000,0.700000,850.000000,-1073.387833
12.000000,0.700000,855.000000,-1030.712342
12.000000,0.700000,860.000000,-993.540280
12.000000,0.700000,865.000000,-961.604467
12.000000,0.700000,870.000000,-934.642381
12.000000,0.700000,875.000000,-912.462122
12.000000,0.700000,880.000000,-894.843714
12.000000,0.700000,885.000000,-881.646508
12.000000,0.700000,890.000000,-872.720056
12.000000,0.700000,895.000000,-868.002225
12.000000,0.700000,900.000000,-867.313423
12.000000,0.700000,905.000000,-870.682577
12.000000,0.700000,910.000000,-878.034082
12.000000,0.700000,915.000000,-889.370370
12.000000,0.700000,920.000000,-904.704977
12.000000,0.700000,925.000000,-924.029314
12.000000,0.700000,930.000000,-947.393867
12.000000,0.700000,935.000000,-974.936426
12.000000,0.700000,940.000000,-1006.727681
12.000000,0.700000,945.000000,-1042.834836
12.000000,0.700000,950.000000,-1083.494120
12.000000,0.800000,800.000000,-2045.387646
12.000000,0.800000,805.000000,-1913.548357
12.000000,0.800000,810.000000,-1792.851376
12.000000,0.800000,815.000000,-1682.525627
12.000000,0.800000,820.000000,-1581.850720
12.000000,0.800000,825.000000,-1490.201261
12.000000,0.800000,830.000000,-1406.960804
12.000000,0.800000,835.000000,-1331.624273
12.000000,0.800000,840.000000,-1263.688817
12.000000,0.800000,845.000000,-1202.709862
12.000000,0.800000,850.000000,-1148.282895
12.000000,0.800000,855.000000,-1100.051789
12.000000,0.800000,860.000000,-1057.682980
12.000000,0.800000,865.000000,-1020.886471
12.000000,0.800000,870.000000,-989.395545
12.000000,0.800000,875.000000,-962.979479
12.000000,0.800000,880.000000,-941.414786
12.000000,0.800000,885.000000,-924.564637
12.000000,0.800000,890.000000,-912.223759
12.000000,0.800000,895.000000,-904.269874
12.000000,0.800000,900.000000,-900.685369
12.000000,0.800000,905.000000,-901.293476
12.000000,0.800000,910.000000,-906.095434
12.000000,0.800000,915.000000,-915.078525
12.000000,0.800000,920.000000,-928.206773
12.000000,0.800000,925.000000,-945.518268
12.000000,0.800000,930.000000,-967.055944
12.000000,0.800000,935.000000,-992.869948
12.000000,0.800000,940.000000,-1023.049321
12.000000,0.800000,945.000000,-1057.712591
12.000000,0.800000,950.000000,-1097.003349
12.000000,0.900000,800.000000,-2193.434818
12.000000,0.900000,805.000000,-2051.651276
12.000000,0.900000,810.000000,-1921.635551
12.000000,0.900000,815.000000,-1802.572720
12.000000,0.900000,820.000000,-1693.701584
12.000000,0.900000,825.000000,-1594.362121
12.000000,0.900000,830.000000,-1503.903329
12.000000,0.900000,835.000000,-1421.792767
12.000000,0.900000,840.000000,-1347.499728
12.000000,0.900000,845.000000,-1280.555140
12.000000,0.900000,850.000000,-1220.531988
12.000000,0.900000,855.000000,-1167.054058
12.000000,0.900000,860.000000,-1119.768377
12.000000,0.900000,865.000000,-1078.371928
12.000000,0.900000,870.000000,-1042.564025
12.000000,0.900000,875.000000,-1012.111402
12.000000,0.900000,880.000000,-986.782957
12.000000,0.900000,885.000000,-966.396345
12.000000,0.900000,890.000000,-950.809720
12.000000,0.900000,895.000000,-939.798946
12.000000,0.900000,900.000000,-933.345207
12.000000,0.900000,905.000000,-931.337284
12.000000,0.900000,910.000000,-933.679996
12.000000,0.900000,915.000000,-940.383864
12.000000,0.900000,920.000000,-951.402861
12.000000,0.900000,925.000000,-966.746595
12.000000,0.900000,930.000000,-986.454011
12.000000,0.900000,935.000000,-1010.587764
12.000000,0.900000,940.000000,-1039.253351
12.000000,0.900000,945.000000,-1072.480646
12.000000,0.900000,950.000000,-1110.445721
12.000000,1.000000,800.000000,-2334.832236
12.000000,1.000000,805.000000,-2183.681391
12.000000,1.000000,810.000000,-2044.886141
12.000000,1.000000,815.000000,-1917.589592
12.000000,1.000000,820.000000,-1800.991469
12.000000,1.000000,825.000000,-1694.398597
12.000000,1.000000,830.000000,-1597.126901
12.000000,1.000000,835.000000,-1508.617805
12.000000,1.000000,840.000000,-1428.314048
12.000000,1.000000,845.000000,-1355.723275
12.000000,1.000000,850.000000,-1290.397182
12.000000,1.000000,855.000000,-1231.940664
12.000000,1.000000,860.000000,-1179.982576
12.000000,1.000000,865.000000,-1134.224186
12.000000,1.000000,870.000000,-1094.299961
12.000000,1.000000,875.000000,-1059.997994
12.000000,1.000000,880.000000,-1031.057450
12.000000,1.000000,885.000000,-1007.308473
12.000000,1.000000,890.000000,-988.563486
12.000000,1.000000,895.000000,-974.620917
12.000000,1.000000,900.000000,-965.415511
12.000000,1.000000,905.000000,-960.842649
12.000000,1.000000,910.000000,-960.814264
12.000000,1.000000,915.000000,-965.326139
12.000000,1.000000,920.000000,-974.259184
12.000000,1.000000,925.000000,-987.699499
12.000000,1.000000,930.000000,-1005.634437
12.000000,1.000000,935.000000,-1028.125313
12.000000,1.000000,940.000000,-1055.243967
12.000000,1.000000,945.000000,-1087.063459
12.000000,1.000000,950.000000,-1123.731637
12.000000,1.100000,800.000000,-2470.402767
12.000000,1.100000,805.000000,-2310.375646
12.000000,1.100000,810.000000,-2163.260498
12.000000,1.100000,815.000000,-2028.160105
12.000000,1.100000,820.000000,-1904.236615
12.000000,1.100000,825.000000,-1790.764966
12.000000,1.100000,830.000000,-1687.029272
12.000000,1.100000,835.000000,-1592.445839
12.000000,1.100000,840.000000,-1506.431911
12.000000,1.100000,845.000000,-1428.472827
12.000000,1.100000,850.000000,-1358.099948
12.000000,1.100000,855.000000,-1294.900197
12.000000,1.100000,860.000000,-1238.485213
12.000000,1.100000,865.000000,-1188.515739
12.000000,1.100000,870.000000,-1144.687651
12.000000,1.100000,875.000000,-1106.685975
12.000000,1.100000,880.000000,-1074.309035
12.000000,1.100000,885.000000,-1047.305715
12.000000,1.100000,890.000000,-1025.536685
12.000000,1.100000,895.000000,-1008.757937
12.000000,1.100000,900.000000,-996.931807
12.000000,1.100000,905.000000,-989.848266
12.000000,1.100000,910.000000,-987.518216
12.000000,1.100000,915.000000,-989.850369
12.000000,1.100000,920.000000,-996.811399
12.000000,1.100000,925.000000,-1008.393363
12.000000,1.100000,930.000000,-1024.606431
12.000000,1.100000,935.000000,-1045.474616
12.000000,1.100000,940.000000,-1071.107520
12.000000,1.100000,945.000000,-1101.544611
12.000000,1.100000,950.000000,-1136.927900
12.000000,1.200000,800.000000,-2600.812392
12.000000,1.200000,805.000000,-2432.332994
12.000000,1.200000,810.000000,-2277.295297
12.000000,1.200000,815.000000,-2134.763214
12.000000,1.200000,820.000000,-2003.862653
12.000000,1.200000,825.000000,-1883.837771
12.000000,1.200000,830.000000,-1773.941974
12.000000,1.200000,835.000000,-1673.567324
12.000000,1.200000,840.000000,-1582.106462
12.000000,1.200000,845.000000,-1499.023238
12.000000,1.200000,850.000000,-1423.829450
12.000000,1.200000,855.000000,-1356.094790
12.000000,1.200000,860.000000,-1295.427407
12.000000,1.200000,865.000000,-1241.435399
12.000000,1.200000,870.000000,-1193.823404
12.000000,1.200000,875.000000,-1152.298852
12.000000,1.200000,880.000000,-1116.592683
12.000000,1.200000,885.000000,-1086.465736
12.000000,1.200000,890.000000,-1061.742274
12.000000,1.200000,895.000000,-1042.249022
12.000000,1.200000,900.000000,-1027.842792
12.000000,1.200000,905.000000,-1018.380874
12.000000,1.200000,910.000000,-1013.842533
12.000000,1.200000,915.000000,-1014.053658
12.000000,1.200000,920.000000,-1019.061970
12.000000,1.200000,925.000000,-1028.825864
12.000000,1.200000,930.000000,-1043.337537
12.000000,1.200000,935.000000,-1062.641610
12.000000,1.200000,940.000000,-1086.833966
12.000000,1.200000,945.000000,-1115.902874
12.000000,1.200000,950.000000,-1150.012314
12.000000,1.300000,800.000000,-2726.609136
12.000000,1.300000,805.000000,-2550.048074
12.000000,1.300000,810.000000,-2387.435444
12.000000,1.300000,815.000000,-2237.797604
12.000000,1.300000,820.000000,-2100.225418
12.000000,1.300000,825.000000,-1973.933260
12.000000,1.300000,830.000000,-1858.144801
12.000000,1.300000,835.000000,-1752.228626
12.000000,1.300000,840.000000,-1655.553556
12.000000,1.300000,845.000000,-1567.562645
12.000000,1.300000,850.000000,-1487.748782
12.000000,1.300000,855.000000,-1415.665040
12.000000,1.300000,860.000000,-1350.904279
12.000000,1.300000,865.000000,-1293.064434
12.000000,1.300000,870.000000,-1241.849136
12.000000,1.300000,875.000000,-1196.883846
12.000000,1.300000,880.000000,-1157.965599
12.000000,1.300000,885.000000,-1124.839114
12.000000,1.300000,890.000000,-1097.299452
12.000000,1.300000,895.000000,-1075.143680
12.000000,1.300000,900.000000,-1058.244271
12.000000,1.300000,905.000000,-1046.463147
12.000000,1.300000,910.000000,-1039.713077
12.000000,1.300000,915.000000,-1037.924768
12.000000,1.300000,920.000000,-1041.052099
12.000000,1.300000,925.000000,-1049.034240
12.000000,1.300000,930.000000,-1061.863343
12.000000,1.300000,935.000000,-1079.631923
12.000000,1.300000,940.000000,-1102.363614
12.000000,1.300000,945.000000,-1130.115800
12.000000,1.300000,950.000000,-1163.002508
12.000000,1.400000,800.000000,-2848.250395
12.000000,1.400000,805.000000,-2663.934996
12.000000,1.400000,810.000000,-2494.054650
12.000000,1.400000,815.000000,-2337.599349
12.000000,1.400000,820.000000,-2193.625999
12.000000,1.400000,825.000000,-2061.320091
12.000000,1.400000,830.000000,-1939.876447
12.000000,1.400000,835.000000,-1828.640857
12.000000,1.400000,840.000000,-1726.959020
12.000000,1.400000,845.000000,-1634.253797
12.000000,1.400000,850.000000,-1549.999738
12.000000,1.400000,855.000000,-1473.733813
12.000000,1.400000,860.000000,-1405.034099
12.000000,1.400000,865.000000,-1343.507161
12.000000,1.400000,870.000000,-1288.752787
12.000000,1.400000,875.000000,-1240.558031
12.000000,1.400000,880.000000,-1198.504438
12.000000,1.400000,885.000000,-1162.505112
12.000000,1.400000,890.000000,-1132.180531
12.000000,1.400000,895.000000,-1107.466077
12.000000,1.400000,900.000000,-1088.153949
12.000000,1.400000,905.000000,-1074.107548
12.000000,1.400000,910.000000,-1065.239388
12.000000,1.400000,915.000000,-1061.488705
12.000000,1.400000,920.000000,-1062.715093
12.000000,1.400000,925.000000,-1068.954649
12.000000,1.400000,930.000000,-1080.192975
12.000000,1.400000,935.000000,-1096.467085
12.000000,1.400000,940.000000,-1117.775203
12.000000,1.400000,945.000000,-1144.227838
12.000000,1.400000,950.000000,-1175.906720
